VULCAN
alpha beta intensity
Single peak fit using lmfit routine (P-V profile) at 2022-07-30 19:21:49.170374
5.55713 176.45997 2.66644 0.06216
0.00000 90.00000 4.89262 0.07866
5.55713 3.54003 2.21332 0.05216
89.31892 97.05324 2.37631 0.06198
90.00000 -90.00000 3.51862 0.07751
89.31892 82.94676 2.94818 0.06216
5.55713 -153.54175 2.82675 0.06635
0.00000 119.99828 4.75075 0.08486
5.55713 33.53831 2.87251 0.06267
89.31892 127.05152 3.96325 0.07824
90.00000 -60.00172 3.82605 0.08030
89.31892 112.94504 2.89178 0.06002
5.55713 -123.54090 3.73675 0.07480
0.00000 149.99913 4.36555 0.07871
5.55713 63.53916 4.26812 0.07432
89.31892 157.05237 1.53430 0.05229
90.00000 -30.00087 0.94034 0.04389
89.31892 142.94589 1.63057 0.04768
5.55713 -93.54134 4.92869 0.08705
0.00000 179.99869 4.46783 0.07579
5.55713 93.53873 4.78384 0.07686
89.31892 -172.94807 3.09164 0.07294
90.00000 -0.00131 4.26019 0.08416
89.31892 172.94546 3.94819 0.07138
5.55713 -63.54306 4.23349 0.08282
0.00000 -150.00303 4.50566 0.07656
5.55713 123.53700 3.42543 0.06812
89.31892 -142.94979 2.30912 0.06194
90.00000 29.99697 1.03245 0.04477
89.31892 -157.05627 1.13990 0.03992
5.55713 -33.54092 3.16226 0.06719
0.00000 -120.00089 4.73598 0.07969
5.55713 153.53914 2.49930 0.05618
89.31892 -112.94765 2.26478 0.06253
90.00000 59.99911 3.15640 0.07108
89.31892 -127.05413 4.18446 0.07351
5.55713 -3.54136 2.54207 0.05968
0.00000 -90.00133 5.00117 0.08033
5.55713 -176.46129 2.41241 0.05688
89.31892 -82.94809 2.62496 0.06676
90.00000 89.99867 3.75299 0.08006
89.31892 -97.05456 3.17878 0.06296
5.55713 26.45692 2.52281 0.06336
0.00000 -60.00305 4.80049 0.07948
5.55713 -146.46302 3.27785 0.06616
89.31892 -52.94981 4.20009 0.08300
90.00000 119.99695 4.34383 0.08369
89.31892 -67.05629 2.99795 0.06228
5.55713 56.45906 3.48495 0.07234
0.00000 -30.00091 4.30910 0.07493
5.55713 -116.46088 4.61264 0.07920
89.31892 -22.94767 1.64236 0.05697
90.00000 149.99909 0.99947 0.04392
89.31892 -37.05415 1.73135 0.04780
5.55713 86.45862 4.72945 0.08119
0.00000 -0.00135 4.46273 0.07394
5.55713 -86.46131 4.77933 0.08052
89.31892 7.05189 3.45667 0.08005
90.00000 179.99865 4.44490 0.08947
89.31892 -7.05458 4.10300 0.07123
5.55713 116.45690 4.25941 0.07720
0.00000 29.99693 4.48620 0.07739
5.55713 -56.46304 3.63317 0.07014
89.31892 37.05017 2.31997 0.06298
90.00000 -150.00307 1.16434 0.04626
89.31892 22.94369 1.33366 0.04564
5.55713 146.45904 3.19044 0.06733
0.00000 59.99907 4.75958 0.08240
5.55713 -26.46090 2.58254 0.05829
89.31892 67.05231 2.07126 0.05873
90.00000 -120.00093 2.95735 0.06985
89.31892 52.94583 3.96711 0.07216
6.60131 -177.30280 2.40410 0.05772
3.92476 -120.00093 4.84863 0.07991
6.60131 -62.69906 3.72210 0.06847
81.90616 67.08360 1.99133 0.05887
82.47848 59.99907 2.77361 0.06714
81.90616 52.91454 3.72749 0.06831
6.60131 152.69764 2.93052 0.06640
3.92476 -150.00050 4.05535 0.07360
6.60131 -92.69863 4.94235 0.08292
81.90616 37.08404 2.10032 0.05715
82.47848 29.99950 1.09001 0.04571
81.90616 22.91497 1.08704 0.04135
6.60131 122.69807 4.24947 0.07525
3.92476 179.99994 3.79922 0.06537
6.60131 -122.69819 4.62252 0.07804
81.90616 7.08447 3.32163 0.07658
82.47848 -0.00006 4.11826 0.08680
81.90616 -7.08459 4.19507 0.07711
6.60131 92.69851 4.64290 0.08357
3.92476 150.00038 3.74704 0.07117
6.60131 -152.69776 3.06122 0.06161
81.90616 -22.91509 1.63661 0.05835
82.47848 -29.99962 0.92639 0.04455
81.90616 -37.08416 1.66865 0.04949
6.60131 62.69766 3.74370 0.07313
3.92476 119.99952 4.39195 0.07779
6.60131 177.30139 2.23606 0.05216
81.90616 -52.91594 4.23579 0.08439
82.47848 -60.00048 4.15730 0.08656
81.90616 -67.08501 3.06242 0.06245
6.60131 32.69809 2.66412 0.06351
3.92476 89.99996 4.98327 0.08310
6.60131 147.30183 2.37676 0.05603
81.90616 -82.91551 2.57365 0.06691
82.47848 -90.00004 3.85146 0.08518
81.90616 -97.08457 3.18365 0.06479
6.60131 2.69724 2.23237 0.05633
3.92476 59.99911 4.61280 0.07698
6.60131 117.30098 3.44023 0.06849
81.90616 -112.91636 2.30036 0.06022
82.47848 -120.00089 3.20307 0.07452
81.90616 -127.08542 4.04722 0.07299
6.60131 -27.30232 2.87966 0.06502
3.92476 29.99954 3.78966 0.06981
6.60131 87.30141 4.75906 0.08029
81.90616 -142.91592 2.06793 0.05768
82.47848 -150.00046 1.07659 0.04507
81.90616 -157.08499 1.07887 0.04188
6.60131 -57.30189 4.37025 0.07886
3.92476 -0.00002 3.72085 0.06788
6.60131 57.30185 4.27177 0.07283
81.90616 -172.91549 3.06264 0.07412
82.47848 179.99998 3.84227 0.08349
81.90616 172.91545 3.62020 0.06940
6.60131 -87.30145 4.84318 0.08717
3.92476 -29.99958 3.52177 0.06605
6.60131 27.30228 2.78196 0.05979
81.90616 157.08495 1.51024 0.05305
82.47848 150.00042 0.83451 0.04192
81.90616 142.91588 1.37897 0.04361
6.60131 -117.30230 4.04085 0.07730
3.92476 -60.00044 4.19909 0.07730
6.60131 -2.69857 2.08018 0.05112
81.90616 127.08410 3.58658 0.07082
82.47848 119.99956 3.69693 0.07832
81.90616 112.91503 2.56859 0.05663
6.60131 -147.30187 2.90437 0.06588
3.92476 -90.00000 5.08454 0.08407
6.60131 -32.69813 2.43875 0.05549
81.90616 97.08453 2.30515 0.06303
82.47848 90.00000 3.49196 0.07825
81.90616 82.91547 2.85935 0.06169
9.34588 -126.69781 3.49278 0.07191
7.86923 -90.00000 5.15671 0.08196
9.34588 -53.30219 2.87559 0.06173
75.04809 97.17037 2.31690 0.06217
75.52700 90.00000 3.28390 0.07445
75.04809 82.82963 2.90244 0.06344
9.34588 -96.69953 5.02991 0.08395
7.86923 -60.00172 3.68157 0.06824
9.34588 -23.30391 1.91668 0.05069
75.04809 127.16864 3.15076 0.07223
75.52700 119.99828 2.87738 0.06901
75.04809 112.82791 2.23161 0.05325
9.34588 -66.69868 4.51984 0.08353
7.86923 -30.00087 2.39113 0.05441
9.34588 6.69694 2.11169 0.05310
75.04809 157.16950 1.17246 0.04484
75.52700 149.99913 0.60662 0.03584
75.04809 142.82876 1.42204 0.04455
9.34588 -36.69912 2.84296 0.06432
7.86923 -0.00131 2.28272 0.05387
9.34588 36.69651 2.70613 0.05797
75.04809 -172.83094 2.53057 0.06148
75.52700 179.99869 2.67505 0.06665
75.04809 172.82833 2.62119 0.05769
9.34588 -6.70212 1.96790 0.05482
7.86923 29.99569 2.53586 0.05476
9.34588 66.69350 4.69481 0.07738
75.04809 -142.83395 1.94134 0.05582
75.52700 -150.00431 0.91117 0.04268
75.04809 -157.17468 0.83627 0.03604
9.34588 23.30130 1.97243 0.05282
7.86923 59.99911 4.19171 0.07275
9.34588 96.69692 4.68552 0.08177
75.04809 -112.83052 2.06110 0.05948
75.52700 -120.00089 2.60811 0.06805
75.04809 -127.17126 3.34742 0.06439
9.34588 53.29700 2.97761 0.06608
7.86923 89.99482 5.04889 0.08229
9.34588 126.69263 2.62779 0.05945
75.04809 -82.83482 2.53537 0.06632
75.52700 -90.00518 3.54738 0.07855
75.04809 -97.17555 3.06816 0.06668
9.34588 83.29914 4.82928 0.08437
7.86923 119.99695 3.52438 0.06720
9.34588 156.69477 1.98663 0.05205
75.04809 -52.83268 3.74340 0.07753
75.52700 -60.00305 3.45506 0.07562
75.04809 -67.17341 2.65677 0.05815
9.34588 113.30128 4.27295 0.08135
7.86923 149.99909 2.34696 0.05382
9.34588 -173.30310 2.06816 0.05166
75.04809 -22.83054 1.30435 0.05001
75.52700 -30.00091 0.80807 0.04055
75.04809 -37.17128 1.48654 0.04495
9.34588 143.30084 2.64652 0.06058
7.86923 179.99865 2.41143 0.05344
9.34588 -143.30353 3.05805 0.06378
75.04809 7.16902 2.65729 0.06620
75.52700 -0.00135 3.00123 0.07159
75.04809 -7.17171 3.12294 0.06295
9.34588 173.29912 1.93695 0.05457
7.86923 -150.00307 3.00095 0.05860
9.34588 -113.30525 5.07828 0.08297
75.04809 37.16730 1.88286 0.05747
75.52700 29.99693 0.88582 0.03967
75.04809 22.82657 0.84207 0.03475
9.34588 -156.69874 1.98973 0.05309
7.86923 -120.00093 4.67878 0.07847
9.34588 -83.30312 4.88426 0.08364
75.04809 67.16944 1.95554 0.05697
75.52700 59.99907 2.38569 0.06138
75.04809 52.82870 3.00661 0.06014
12.76303 -146.20908 2.08863 0.05830
11.84553 -120.00093 4.39082 0.07503
12.76303 -93.79278 5.23085 0.08456
68.66734 67.31318 1.86940 0.05604
69.06442 59.99907 2.07686 0.06074
68.66734 52.68496 2.98556 0.06011
12.76303 -176.20864 2.19438 0.05638
11.84553 -150.00050 2.17468 0.05023
12.76303 -123.79235 4.28027 0.07511
68.66734 37.31362 2.37705 0.06177
69.06442 29.99950 1.23610 0.04674
68.66734 22.68539 0.91848 0.03699
12.76303 153.79179 2.07101 0.05450
11.84553 179.99994 2.25387 0.05140
12.76303 -153.79191 2.17508 0.05505
68.66734 7.31405 2.03827 0.05595
69.06442 -0.00006 2.18485 0.06192
68.66734 -7.31417 2.22502 0.05393
12.76303 123.79223 3.24202 0.06694
11.84553 150.00038 1.99325 0.04789
12.76303 176.20852 2.41391 0.05516
68.66734 -22.68551 0.99763 0.04328
69.06442 -29.99962 0.85087 0.04010
68.66734 -37.31374 1.92864 0.05190
12.76303 93.79138 4.92122 0.08989
11.84553 119.99952 3.18276 0.06084
12.76303 146.20767 2.01730 0.05104
68.66734 -52.68636 3.50857 0.07719
69.06442 -60.00048 3.06649 0.07234
68.66734 -67.31459 2.37808 0.05688
12.76303 63.79824 3.67344 0.07321
11.84553 90.00639 5.22218 0.08186
12.76303 116.21454 3.20088 0.06204
68.66734 -82.67950 2.41083 0.06620
69.06442 -89.99361 3.60173 0.07763
68.66734 -97.30772 3.11332 0.06528
12.76303 33.79353 1.94936 0.05328
11.84553 60.00168 3.88678 0.06877
12.76303 86.20983 5.01798 0.08504
68.66734 -112.68421 2.02838 0.05719
69.06442 -119.99832 2.38199 0.06056
68.66734 -127.31243 3.21367 0.06257
12.76303 3.79397 2.29995 0.06020
11.84553 30.00212 2.03497 0.04957
12.76303 56.21026 3.88929 0.06949
68.66734 -142.68377 2.41561 0.05922
69.06442 -149.99788 1.20585 0.04467
68.66734 -157.31200 0.85303 0.03433
12.76303 -26.20560 2.28344 0.05728
11.84553 0.00255 2.34699 0.05489
12.76303 26.21070 2.24579 0.05204
68.66734 -172.68334 1.88805 0.05280
69.06442 -179.99745 2.07011 0.05913
68.66734 172.68844 2.20483 0.05215
12.76303 -56.20645 3.44106 0.07189
11.84553 -29.99830 2.16789 0.05156
12.76303 -3.79015 2.58634 0.05669
68.66734 157.31581 1.00620 0.04356
69.06442 150.00170 0.93193 0.04102
68.66734 142.68759 2.14255 0.05192
12.76303 -86.20730 4.98022 0.08465
11.84553 -59.99915 3.37154 0.06409
12.76303 -33.79100 2.11228 0.05076
68.66734 127.31496 3.19888 0.07191
69.06442 120.00085 2.68594 0.06443
68.66734 112.68674 2.08166 0.05124
12.76303 -116.20815 4.06847 0.07537
11.84553 -90.00000 5.03140 0.07808
12.76303 -63.79185 3.35089 0.06511
68.66734 97.31411 2.52263 0.06172
69.06442 90.00000 3.65187 0.07751
68.66734 82.68589 2.97123 0.06276
16.46989 -110.28705 4.33825 0.07931
15.86376 -90.00000 4.43874 0.07408
16.46989 -69.71295 3.79031 0.07239
62.70303 97.52128 2.93646 0.06932
63.02687 90.00000 3.95620 0.08189
62.70303 82.47872 3.36735 0.06793
16.46989 -80.28877 4.53362 0.08319
15.86376 -60.00172 3.11416 0.06131
16.46989 -39.71467 2.23712 0.05614
62.70303 127.51955 3.29736 0.07291
63.02687 119.99828 2.80322 0.06812
62.70303 112.47700 2.28831 0.05459
16.46989 -50.28792 2.54819 0.06221
15.86376 -30.00087 2.59077 0.05727
16.46989 -9.71382 3.47906 0.07063
62.70303 157.52041 1.84710 0.05351
63.02687 149.99913 2.36849 0.06450
62.70303 142.47785 3.29446 0.06093
16.46989 -20.29093 3.02622 0.06752
15.86376 -0.00388 3.31394 0.06764
16.46989 20.28318 2.90461 0.06145
62.70303 -172.48260 1.96211 0.05594
63.02687 179.99612 2.46025 0.06088
62.70303 172.47485 2.50858 0.05510
16.46989 9.70864 3.16279 0.06911
15.86376 29.99569 2.33253 0.05486
16.46989 50.28274 2.96251 0.06378
62.70303 -142.48304 2.98550 0.06871
63.02687 -150.00431 2.34894 0.06408
62.70303 -157.52559 1.85225 0.04742
16.46989 39.71077 2.03237 0.05484
15.86376 59.99782 3.78936 0.06937
16.46989 80.28488 4.66205 0.07585
62.70303 -112.48090 1.97705 0.05696
63.02687 -120.00218 2.33437 0.06257
62.70303 -127.52345 3.18506 0.06455
16.46989 69.70905 4.19154 0.07786
15.86376 89.99610 4.70307 0.07931
16.46989 110.28316 3.63478 0.07005
62.70303 -82.48262 2.90097 0.06822
63.02687 -90.00390 4.08660 0.08305
62.70303 -97.52517 3.42089 0.06467
16.46989 99.70990 4.52962 0.08046
15.86376 119.99695 2.91691 0.05925
16.46989 140.28401 2.34893 0.05582
62.70303 -52.48177 3.48714 0.07767
63.02687 -60.00305 2.78683 0.06823
62.70303 -67.52432 2.32825 0.05395
16.46989 129.71204 2.34902 0.05894
15.86376 149.99909 2.51650 0.05908
16.46989 170.28614 3.42775 0.06960
62.70303 -22.47963 1.48560 0.05079
63.02687 -30.00091 1.89081 0.05602
62.70303 -37.52219 2.99528 0.06205
16.46989 159.71160 3.07282 0.06525
15.86376 179.99865 3.23017 0.06478
16.46989 -159.71429 2.56361 0.05850
62.70303 7.51993 2.04153 0.05691
63.02687 -0.00135 2.60825 0.06738
62.70303 -7.52262 2.25336 0.05111
16.46989 -170.29012 3.29282 0.06974
15.86376 -150.00307 2.21900 0.05276
16.46989 -129.71601 3.26699 0.06324
62.70303 37.51821 3.06448 0.06824
63.02687 29.99693 2.56244 0.06119
62.70303 22.47566 1.94677 0.05142
16.46989 -140.28927 2.09585 0.05428
15.86376 -120.00222 4.16238 0.07701
16.46989 -99.71516 4.44457 0.07678
62.70303 67.51906 2.06224 0.05653
63.02687 59.99778 2.23899 0.06178
62.70303 52.47651 2.97842 0.06160
20.35407 -136.58209 1.82884 0.05345
19.94675 -120.00222 3.52048 0.06716
20.35407 -103.42234 3.53801 0.06800
57.08758 67.79872 2.67927 0.06318
57.34405 59.99778 2.70065 0.06720
57.08758 52.19684 2.81827 0.06065
20.35407 -166.58166 3.32432 0.07300
19.94675 -150.00178 2.43202 0.05843
20.35407 -133.42191 2.15821 0.05309
57.08758 37.79916 3.52978 0.07352
57.34405 29.99822 4.41422 0.08549
57.08758 22.19728 4.54358 0.07010
20.35407 163.42007 3.44892 0.07492
19.94675 179.99994 3.16750 0.07314
20.35407 -163.42019 3.06277 0.07012
57.08758 7.80088 3.58378 0.07614
57.34405 -0.00006 3.88932 0.07704
57.08758 -7.80100 3.52367 0.06664
20.35407 133.42050 1.90970 0.05265
19.94675 150.00038 3.14154 0.06328
20.35407 166.58025 3.20020 0.07260
57.08758 -22.19869 3.86611 0.07842
57.34405 -29.99962 4.13701 0.08283
57.08758 -37.80056 4.01975 0.07029
20.35407 103.41965 3.99094 0.07714
19.94675 119.99952 2.41409 0.05629
20.35407 136.57940 2.36109 0.05923
57.08758 -52.19954 3.38599 0.07305
57.34405 -60.00048 2.94008 0.07211
57.08758 -67.80141 2.79084 0.06004
20.35407 73.42137 3.97770 0.07812
19.94675 90.00125 3.76833 0.06723
20.35407 106.58112 3.70930 0.06844
57.08758 -82.19782 3.17771 0.06870
57.34405 -89.99875 4.02153 0.08113
57.08758 -97.79969 3.79983 0.06977
20.35407 43.42181 1.98571 0.05421
19.94675 60.00168 3.24891 0.06392
20.35407 76.58156 3.88209 0.07239
57.08758 -112.19738 2.54149 0.06305
57.34405 -119.99832 2.74696 0.06623
57.08758 -127.79926 3.26130 0.06445
20.35407 13.42096 3.27955 0.07239
19.94675 30.00083 2.68439 0.06086
20.35407 46.58071 2.00230 0.05131
57.08758 -142.19823 3.51053 0.07405
57.34405 -149.99917 4.13218 0.08322
57.08758 -157.80011 4.45549 0.07104
20.35407 -16.57861 3.17248 0.07114
19.94675 0.00127 3.00673 0.07022
20.35407 16.58114 3.37509 0.07173
57.08758 -172.19780 3.45378 0.07341
57.34405 -179.99873 3.78902 0.07658
57.08758 172.20033 3.92244 0.06707
20.35407 -46.57817 1.76554 0.05421
19.94675 -29.99830 2.94783 0.06671
20.35407 -13.41842 3.10816 0.07096
57.08758 157.80264 4.35177 0.08119
57.34405 150.00170 4.70280 0.08259
57.08758 142.20076 3.97312 0.06605
20.35407 -76.57902 3.83304 0.07325
19.94675 -59.99915 2.32084 0.05432
20.35407 -43.41927 2.20885 0.05665
57.08758 127.80179 3.17591 0.07011
57.34405 120.00085 2.99744 0.06787
57.08758 112.19991 2.94456 0.06091
20.35407 -106.57987 3.89245 0.07338
19.94675 -90.00000 3.31151 0.06607
20.35407 -73.42013 3.49869 0.06634
57.08758 97.80094 3.26822 0.07448
57.34405 90.00000 3.93323 0.08285
57.08758 82.19906 3.59282 0.06579
24.37601 -104.08165 3.02607 0.06708
24.10869 -90.00000 2.39987 0.05523
24.37601 -75.91835 2.94541 0.06407
51.77717 98.16569 3.27428 0.07206
51.96990 90.00000 3.65554 0.07854
51.77717 81.83431 3.29560 0.06365
24.37601 -74.08466 3.14079 0.06618
24.10869 -60.00301 1.69090 0.04850
24.37601 -45.92135 2.18351 0.05763
51.77717 128.16269 2.31929 0.05995
51.96990 119.99699 2.88436 0.07190
51.77717 111.83130 3.31650 0.06481
24.37601 -44.08252 1.97955 0.05622
24.10869 -30.00087 2.55149 0.06183
24.37601 -15.91922 2.17783 0.05935
51.77717 158.16482 6.09733 0.10434
51.96990 149.99913 5.26793 0.09446
51.77717 141.83344 3.53057 0.06596
24.37601 -14.08553 2.36050 0.06556
24.10869 -0.00388 2.17015 0.05929
24.37601 14.07778 2.50315 0.06150
51.77717 -171.83818 5.51772 0.09230
51.96990 179.99612 4.77548 0.08420
51.77717 171.83043 4.95604 0.07665
24.37601 15.91403 2.42151 0.06202
24.10869 29.99569 2.60934 0.06346
24.37601 44.07734 1.81327 0.05051
51.77717 -141.83862 3.03200 0.06782
51.96990 -150.00431 4.67297 0.08685
51.77717 -158.17000 6.00752 0.08687
24.37601 45.91617 1.79629 0.05357
24.10869 59.99782 2.40471 0.05721
24.37601 74.07948 3.34729 0.06200
51.77717 -111.83648 3.41108 0.07146
51.96990 -120.00218 3.16328 0.06925
51.77717 -128.16787 2.66282 0.05810
24.37601 75.91445 3.40313 0.07104
24.10869 89.99610 2.69503 0.06044
24.37601 104.07776 3.24623 0.06621
51.77717 -81.83820 3.48271 0.07275
51.96990 -90.00390 4.01199 0.08238
51.77717 -98.16959 3.77804 0.06695
24.37601 105.91530 3.21867 0.07051
24.10869 119.99695 1.76717 0.04827
24.37601 134.07861 2.20065 0.05626
51.77717 -51.83735 2.70331 0.06515
51.96990 -60.00305 3.22180 0.07274
51.77717 -68.16874 3.45771 0.06502
24.37601 135.91744 1.93866 0.05491
24.10869 149.99909 2.66077 0.06505
24.37601 164.08074 2.28521 0.06224
51.77717 -21.83522 6.12980 0.09824
51.96990 -30.00091 5.53019 0.09478
51.77717 -38.16660 3.86986 0.06787
24.37601 165.91700 2.38513 0.06327
24.10869 179.99865 2.24624 0.06181
24.37601 -165.91969 2.50883 0.06421
51.77717 8.16435 5.32864 0.08763
51.96990 -0.00135 4.99258 0.08934
51.77717 -8.16704 5.08095 0.07843
24.37601 -164.08472 2.60600 0.06530
24.10869 -150.00307 2.40912 0.06132
24.37601 -135.92141 1.76311 0.05144
51.77717 38.16263 2.74487 0.06506
51.96990 29.99693 4.81699 0.08641
51.77717 21.83124 6.33269 0.08614
24.37601 -134.08258 1.85494 0.05609
24.10869 -120.00093 2.47205 0.05940
24.37601 -105.91928 2.96084 0.05839
51.77717 68.16476 3.09950 0.07112
51.96990 59.99907 2.89506 0.06856
51.77717 51.83338 2.48844 0.05631
28.52653 -132.30824 1.95564 0.05857
28.36567 -120.00093 1.79395 0.05259
28.52653 -107.69362 2.62414 0.05798
46.73358 68.63253 2.68735 0.06459
46.86401 59.99907 2.72803 0.06757
46.73358 51.36561 2.15747 0.05469
28.52653 -162.30781 1.76834 0.05298
28.36567 -150.00050 2.16530 0.05914
28.52653 -137.69318 2.15644 0.05698
46.73358 38.63297 1.90243 0.05685
46.86401 29.99950 3.59841 0.07633
46.73358 21.36604 5.20627 0.07883
28.52653 167.69263 1.83670 0.05478
28.36567 179.99994 1.80486 0.05445
28.52653 -167.69275 1.88688 0.05237
46.73358 8.63340 4.46959 0.08486
46.86401 -0.00006 3.79976 0.07979
46.73358 -8.63352 4.35473 0.07444
28.52653 137.69306 2.27308 0.05982
28.36567 150.00038 1.82992 0.05399
28.52653 162.30769 1.94738 0.05491
46.73358 -21.36616 5.78548 0.09953
46.86401 -29.99962 4.69038 0.08596
46.73358 -38.63309 2.64781 0.05843
28.52653 107.69221 2.39316 0.06075
28.36567 119.99952 1.38267 0.04558
28.52653 132.30684 2.16797 0.05710
46.73358 -51.36701 2.20382 0.05987
46.86401 -60.00048 3.15967 0.07313
46.73358 -68.63394 3.50725 0.06862
28.52653 77.69908 2.70351 0.06522
28.36567 90.00639 1.91743 0.04753
28.52653 102.31370 2.52791 0.06203
46.73358 -81.36015 3.22792 0.07359
46.86401 -89.99361 3.15934 0.07389
46.73358 -98.62707 3.21098 0.06346
28.52653 47.69180 2.00240 0.05726
28.36567 59.99911 1.72431 0.05028
28.52653 72.30642 2.69482 0.06278
46.73358 -111.36743 3.14273 0.06939
46.86401 -120.00089 3.11998 0.07785
46.73358 -128.63435 2.37771 0.05421
28.52653 17.69223 1.78951 0.05414
28.36567 29.99954 1.99042 0.05441
28.52653 42.30686 1.99993 0.05609
46.73358 -141.36699 2.12035 0.05534
46.86401 -150.00046 3.68521 0.07845
46.73358 -158.63392 5.19555 0.08227
28.52653 -12.30347 1.88666 0.05382
28.36567 0.00384 1.88350 0.05293
28.52653 12.31115 1.93244 0.05308
46.73358 -171.36270 4.46544 0.08533
46.86401 -179.99616 3.57897 0.08007
46.73358 171.37037 3.76649 0.06870
28.52653 -42.30561 2.14134 0.06003
28.36567 -29.99830 1.79403 0.05107
28.52653 -17.69099 1.77934 0.05076
46.73358 158.63516 4.74044 0.08546
46.86401 150.00170 4.22725 0.08131
46.73358 141.36824 2.30407 0.05527
28.52653 -72.30518 2.26725 0.05745
28.36567 -59.99786 1.45841 0.04635
28.52653 -47.69055 2.16683 0.05517
46.73358 128.63560 1.84536 0.05573
46.86401 120.00214 2.71904 0.07015
46.73358 111.36867 3.01046 0.06246
28.52653 -102.29960 2.40689 0.06117
28.36567 -89.99229 1.90730 0.04956
28.52653 -77.68497 2.40912 0.05916
46.73358 98.64118 2.91956 0.06804
46.86401 90.00771 2.83032 0.06825
46.73358 81.37425 2.84702 0.05970
32.82102 -100.98828 2.15083 0.05826
32.74665 -89.99229 1.84366 0.05024
32.82102 -78.99629 2.17840 0.05512
41.91203 99.23929 2.46393 0.06048
41.97916 90.00771 2.23355 0.06253
41.91203 80.77613 2.45407 0.05528
32.82102 -70.99900 1.89873 0.05584
32.74665 -60.00301 1.64200 0.04862
32.82102 -49.00702 2.12658 0.05546
41.91203 129.22857 1.74180 0.05539
41.97916 119.99699 2.30471 0.06587
41.91203 110.76541 2.23965 0.05377
32.82102 -40.99943 1.96942 0.05457
32.74665 -30.00344 1.42092 0.04476
32.82102 -19.00745 1.97802 0.05119
41.91203 159.22814 2.51845 0.06422
41.97916 149.99656 2.41268 0.06340
41.91203 140.76498 1.50968 0.04657
32.82102 -10.99730 2.01637 0.05411
32.74665 -0.00131 2.10415 0.05129
32.82102 10.99469 1.98845 0.05077
41.91203 -170.76973 2.53530 0.06523
41.97916 179.99869 1.61816 0.05273
41.91203 170.76711 1.83127 0.04835
32.82102 18.99841 1.63813 0.05079
32.74665 29.99440 1.51655 0.04569
32.82102 40.99039 2.20244 0.05374
41.91203 -140.77402 1.42673 0.04842
41.97916 -150.00560 2.10753 0.06278
41.91203 -159.23718 2.99942 0.06362
32.82102 49.00183 2.07145 0.05978
32.74665 59.99782 1.49864 0.04821
32.82102 70.99381 2.29572 0.05591
41.91203 -110.77060 2.46262 0.06688
41.97916 -120.00218 2.60622 0.06983
41.91203 -129.23376 2.24908 0.05473
32.82102 79.00140 2.31548 0.05958
32.74665 89.99739 1.72793 0.04679
32.82102 100.99338 2.26059 0.05604
41.91203 -80.77103 2.61870 0.06745
41.97916 -90.00261 2.64486 0.06582
41.91203 -99.23419 2.67634 0.05736
32.82102 109.00096 1.82391 0.05524
32.74665 119.99695 1.51205 0.04696
32.82102 130.99294 2.00601 0.05501
41.91203 -50.77147 1.83040 0.05788
41.97916 -60.00305 2.85572 0.07172
41.91203 -69.23463 2.86364 0.06115
32.82102 139.00181 1.92904 0.05409
32.74665 149.99780 1.49729 0.04589
32.82102 160.99379 1.93242 0.05209
41.91203 -20.77062 3.22717 0.07286
41.97916 -30.00220 2.89637 0.06931
41.91203 -39.23378 1.70846 0.04729
32.82102 169.00266 2.08171 0.05461
32.74665 179.99865 2.00455 0.04734
32.82102 -169.00535 1.77157 0.04960
41.91203 9.23023 2.41176 0.06157
41.97916 -0.00135 1.70648 0.05442
41.91203 -9.23293 2.37879 0.05738
32.82102 -160.99906 1.57183 0.05063
32.74665 -150.00307 1.67602 0.04979
32.82102 -139.00708 2.33692 0.06044
41.91203 39.22851 1.36759 0.04922
41.97916 29.99693 2.13521 0.06160
41.91203 20.76535 3.02413 0.06011
32.82102 -130.99821 2.12337 0.05919
32.74665 -120.00222 1.62155 0.05020
32.82102 -109.00623 2.34500 0.05991
41.91203 69.22936 2.13903 0.05926
41.97916 59.99778 2.26947 0.06187
41.91203 50.76620 1.92006 0.05013
37.27288 -130.00345 2.11921 0.05849
37.27278 -120.00222 2.01434 0.05605
37.27288 -110.00098 2.36454 0.05480
37.28556 69.99659 1.87368 0.05676
37.28566 59.99778 1.79984 0.05825
37.28556 49.99898 2.07122 0.05416
37.27288 -160.00173 1.62990 0.04944
37.27278 -150.00050 1.41317 0.04355
37.27288 -139.99926 1.92559 0.05209
37.28556 39.99831 1.51996 0.05255
37.28566 29.99950 1.45195 0.05170
37.28556 20.00070 2.14348 0.05266
37.27288 169.99871 1.76168 0.04874
37.27278 179.99994 1.57597 0.04446
37.27288 -169.99883 1.79017 0.04783
37.28556 9.99874 1.85760 0.05795
37.28566 -0.00006 1.45774 0.04838
37.28556 -9.99886 1.82418 0.04881
37.27288 139.99914 1.44741 0.04725
37.27278 150.00038 1.40876 0.04280
37.27288 160.00161 1.68414 0.04750
37.28556 -20.00082 2.04844 0.06010
37.28566 -29.99962 1.69205 0.05309
37.28556 -39.99843 1.47316 0.04477
37.27288 109.99958 1.69695 0.05413
37.27278 120.00081 1.78778 0.04952
37.27288 130.00204 1.82840 0.05076
37.28556 -50.00039 1.93889 0.05716
37.28566 -59.99919 2.32905 0.06304
37.28556 -69.99799 2.24678 0.05777
37.27288 79.99873 2.07471 0.05705
37.27278 89.99996 1.80766 0.04832
37.27288 100.00119 2.07696 0.05403
37.28556 -80.00124 2.46832 0.06227
37.28566 -90.00004 2.22436 0.06222
37.28556 -99.99884 2.36832 0.05629
37.27288 50.00816 2.07946 0.05603
37.27278 60.00940 1.70702 0.04981
37.27288 70.01063 2.06950 0.05454
37.28556 -109.99180 2.18666 0.06233
37.28566 -119.99060 2.10050 0.06342
37.28556 -129.98941 2.07664 0.05341
37.27288 19.99960 1.61895 0.05099
37.27278 30.00083 1.24451 0.04199
37.27288 40.00206 1.81749 0.05023
37.28556 -140.00037 1.59437 0.05023
37.28566 -149.99917 1.40564 0.05249
37.28556 -159.99797 1.90318 0.04906
37.27288 -9.99997 1.84886 0.05347
37.27278 0.00127 1.58075 0.04363
37.27288 10.00250 1.84951 0.04997
37.28556 -169.99993 1.88492 0.05713
37.28566 -179.99873 1.48335 0.04871
37.28556 170.00246 1.70834 0.04626
37.27288 -39.99953 1.41088 0.04695
37.27278 -29.99830 1.55124 0.04493
37.27288 -19.99707 1.90097 0.05120
37.28556 160.00050 1.85889 0.05638
37.28566 150.00170 1.46778 0.05202
37.28556 140.00290 1.45569 0.04449
37.27288 -70.00167 1.80017 0.05616
37.27278 -60.00044 1.96041 0.05099
37.27288 -49.99920 1.79594 0.05177
37.28556 129.99837 1.93298 0.05862
37.28566 119.99956 1.96329 0.06319
37.28556 110.00076 1.97624 0.05517
37.27288 -99.99995 2.10177 0.05852
37.27278 -89.99871 1.89842 0.05061
37.27288 -79.99748 2.19043 0.05490
37.28556 100.00009 2.18881 0.06010
37.28566 90.00129 1.95615 0.05942
37.28556 80.00248 2.26981 0.05653
