VULCAN
alpha beta intensity
Single peak fit using lmfit routine (P-V profile) at 2022-07-30 19:21:49.170374
5.55713 176.45997 0.67641 0.08323
0.00000 90.00000 0.52865 0.06754
5.55713 3.54003 0.90058 0.08297
89.31892 97.05324 24.72492 0.48970
90.00000 -90.00000 21.70283 0.47604
89.31892 82.94676 24.34406 0.41790
5.55713 -153.54175 0.71849 0.08918
0.00000 119.99828 0.48841 0.07145
5.55713 33.53831 0.77880 0.08348
89.31892 127.05152 11.91125 0.33944
90.00000 -60.00172 8.40149 0.29709
89.31892 112.94504 16.49880 0.33625
5.55713 -123.54090 0.49069 0.07635
0.00000 149.99913 0.44862 0.06837
5.55713 63.53916 0.67931 0.07783
89.31892 157.05237 53.80442 0.74042
90.00000 -30.00087 38.86686 0.65363
89.31892 142.94589 22.98197 0.41003
5.55713 -93.54134 0.83135 0.09619
0.00000 179.99869 0.48106 0.06572
5.55713 93.53873 0.76750 0.07961
89.31892 -172.94807 33.45021 0.59176
90.00000 -0.00131 12.44085 0.35829
89.31892 172.94546 20.66216 0.38596
5.55713 -63.54306 0.72087 0.09229
0.00000 -150.00303 0.55557 0.06998
5.55713 123.53700 0.64686 0.07824
89.31892 -142.94979 18.64421 0.43105
90.00000 29.99697 27.39404 0.53886
89.31892 -157.05627 48.97692 0.58218
5.55713 -33.54092 0.85382 0.09163
0.00000 -120.00089 0.40387 0.06442
5.55713 153.53914 0.88584 0.08382
89.31892 -112.94765 21.02333 0.46570
90.00000 59.99911 9.83428 0.31188
89.31892 -127.05413 9.38689 0.26277
5.55713 -3.54136 0.76965 0.08659
0.00000 -90.00133 0.55207 0.06990
5.55713 -176.46129 0.70409 0.07936
89.31892 -82.94809 27.00130 0.52428
90.00000 89.99867 24.40613 0.50496
89.31892 -97.05456 26.50704 0.42602
5.55713 26.45692 0.70673 0.08956
0.00000 -60.00305 0.54145 0.07112
5.55713 -146.46302 0.74334 0.08077
89.31892 -52.94981 12.64912 0.36060
90.00000 119.99695 9.78010 0.31378
89.31892 -67.05629 18.35510 0.36060
5.55713 56.45906 0.66393 0.08495
0.00000 -30.00091 0.42806 0.06366
5.55713 -116.46088 0.73128 0.08178
89.31892 -22.94767 58.27850 0.81531
90.00000 149.99909 40.85515 0.65246
89.31892 -37.05415 25.20071 0.41754
5.55713 86.45862 0.48445 0.07417
0.00000 -0.00135 0.38793 0.06051
5.55713 -86.46131 0.80663 0.08547
89.31892 7.05189 36.01231 0.63895
90.00000 179.99865 13.18194 0.38453
89.31892 -7.05458 22.04039 0.39049
5.55713 116.45690 0.67923 0.08332
0.00000 29.99693 0.60621 0.07381
5.55713 -56.46304 0.78662 0.08369
89.31892 37.05017 18.32717 0.43427
90.00000 -150.00307 29.68734 0.54984
89.31892 22.94369 51.14911 0.63386
5.55713 146.45904 0.71319 0.08587
0.00000 59.99907 0.67954 0.08009
5.55713 -26.46090 1.07726 0.09303
89.31892 67.05231 19.15280 0.43727
90.00000 -120.00093 9.60067 0.31196
89.31892 52.94583 8.70774 0.25552
6.60131 -177.30280 0.68788 0.08278
3.92476 -120.00093 0.65573 0.07527
6.60131 -62.69906 0.93700 0.08758
81.90616 67.08360 16.85671 0.41906
82.47848 59.99907 8.28489 0.28842
81.90616 52.91454 8.13688 0.24090
6.60131 152.69764 0.88098 0.09457
3.92476 -150.00050 0.65721 0.07679
6.60131 -92.69863 0.78384 0.08568
81.90616 37.08404 19.84507 0.42870
82.47848 29.99950 27.51897 0.53952
81.90616 22.91497 43.13715 0.57801
6.60131 122.69807 0.82247 0.08771
3.92476 179.99994 0.69987 0.07134
6.60131 -122.69819 0.84199 0.08601
81.90616 7.08447 29.07166 0.56064
82.47848 -0.00006 10.83410 0.35087
81.90616 -7.08459 19.03527 0.38879
6.60131 92.69851 0.64549 0.08609
3.92476 150.00038 0.50323 0.06896
6.60131 -152.69776 1.04185 0.08984
81.90616 -22.91509 51.72174 0.78710
82.47848 -29.99962 39.51166 0.67235
81.90616 -37.08416 25.92027 0.44449
6.60131 62.69766 0.66495 0.08406
3.92476 119.99952 0.46786 0.06816
6.60131 177.30139 0.96690 0.08472
81.90616 -52.91594 12.71640 0.36655
82.47848 -60.00048 9.70785 0.33101
81.90616 -67.08501 18.36076 0.35812
6.60131 32.69809 0.75554 0.08880
3.92476 89.99996 0.66345 0.07780
6.60131 147.30183 0.96499 0.08807
81.90616 -82.91551 26.46133 0.52623
82.47848 -90.00004 24.30536 0.52907
81.90616 -97.08457 26.58801 0.43864
6.60131 2.69724 0.72648 0.08472
3.92476 59.99911 0.47306 0.06587
6.60131 117.30098 0.67757 0.07992
81.90616 -112.91636 20.55187 0.44025
82.47848 -120.00089 10.58387 0.33669
81.90616 -127.08542 9.19375 0.26272
6.60131 -27.30232 0.98494 0.09916
3.92476 29.99954 0.74772 0.07863
6.60131 87.30141 0.59929 0.07612
81.90616 -142.91592 18.85134 0.42466
82.47848 -150.00046 27.96363 0.53768
81.90616 -157.08499 41.88397 0.57734
6.60131 -57.30189 0.91517 0.09570
3.92476 -0.00002 0.70767 0.07473
6.60131 57.30185 0.65369 0.07530
81.90616 -172.91549 27.74468 0.54967
82.47848 179.99998 10.11265 0.33763
81.90616 172.91545 15.70557 0.34134
6.60131 -87.30145 0.59155 0.08387
3.92476 -29.99958 0.67841 0.07438
6.60131 27.30228 0.99909 0.08906
81.90616 157.08495 40.23927 0.65468
82.47848 150.00042 31.60750 0.59477
81.90616 142.91588 22.01999 0.39513
6.60131 -117.30230 0.80100 0.09307
3.92476 -60.00044 0.65449 0.07781
6.60131 -2.69857 0.94665 0.08497
81.90616 127.08410 10.64200 0.30533
82.47848 119.99956 7.03466 0.27063
81.90616 112.91503 14.36953 0.31314
6.60131 -147.30187 0.86778 0.09389
3.92476 -90.00000 0.51846 0.06991
6.60131 -32.69813 0.91103 0.08506
81.90616 97.08453 22.40365 0.48134
82.47848 90.00000 20.41626 0.46728
81.90616 82.91547 22.29656 0.40311
9.34588 -126.69781 1.20636 0.10859
7.86923 -90.00000 0.87725 0.08466
9.34588 -53.30219 1.46304 0.10704
75.04809 97.17037 17.95095 0.42424
75.52700 90.00000 15.43687 0.39909
75.04809 82.82963 17.01545 0.35993
9.34588 -96.69953 0.80728 0.09101
7.86923 -60.00172 1.15967 0.09270
9.34588 -23.30391 1.64717 0.11210
75.04809 127.16864 8.31743 0.29308
75.52700 119.99828 4.29945 0.21140
75.04809 112.82791 10.44343 0.26861
9.34588 -66.69868 1.14892 0.11042
7.86923 -30.00087 1.20627 0.09274
9.34588 6.69694 1.37238 0.10338
75.04809 157.16950 15.76959 0.39097
75.52700 149.99913 17.76782 0.43411
75.04809 142.82876 17.77012 0.35751
9.34588 -36.69912 1.57728 0.12116
7.86923 -0.00131 1.20130 0.09323
9.34588 36.69651 1.45048 0.10397
75.04809 -172.83094 9.88905 0.30045
75.52700 179.99869 3.60803 0.19427
75.04809 172.82833 4.89781 0.18724
9.34588 -6.70212 1.16631 0.10688
7.86923 29.99569 1.01698 0.08437
9.34588 66.69350 1.10200 0.09470
75.04809 -142.83395 17.07280 0.40337
75.52700 -150.00431 19.34529 0.45578
75.04809 -157.17468 19.00875 0.37451
9.34588 23.30130 1.31494 0.10850
7.86923 59.99911 0.84001 0.08153
9.34588 96.69692 1.06568 0.09870
75.04809 -112.83052 16.61532 0.41198
75.52700 -120.00089 7.06968 0.27774
75.04809 -127.17126 6.81024 0.21883
9.34588 53.29700 1.01872 0.10047
7.86923 89.99482 0.75996 0.08101
9.34588 126.69263 1.06414 0.09306
75.04809 -82.83482 21.20455 0.47068
75.52700 -90.00518 18.91653 0.44812
75.04809 -97.17555 20.37896 0.40278
9.34588 83.29914 0.89078 0.09715
7.86923 119.99695 0.73111 0.07698
9.34588 156.69477 1.20322 0.09797
75.04809 -52.83268 10.51024 0.32499
75.52700 -60.00305 6.93398 0.26741
75.04809 -67.17341 14.04349 0.31219
9.34588 113.30128 0.84740 0.09644
7.86923 149.99909 1.03653 0.08653
9.34588 -173.30310 1.45785 0.10401
75.04809 -22.83054 23.09060 0.50053
75.52700 -30.00091 24.16280 0.50936
75.04809 -37.17128 21.65578 0.39005
9.34588 143.30084 1.15767 0.10165
7.86923 179.99865 1.21609 0.09034
9.34588 -143.30353 1.42305 0.10642
75.04809 7.16902 10.02574 0.31816
75.52700 -0.00135 4.52052 0.22009
75.04809 -7.17171 7.64478 0.23391
9.34588 173.29912 1.17811 0.10905
7.86923 -150.00307 1.10621 0.08615
9.34588 -113.30525 1.06477 0.09638
75.04809 37.16730 16.65151 0.41675
75.52700 29.99693 18.59025 0.42172
75.04809 22.82657 19.72431 0.36807
9.34588 -156.69874 1.05878 0.09881
7.86923 -120.00093 0.86381 0.08419
9.34588 -83.30312 1.13211 0.10053
75.04809 67.16944 13.10759 0.36019
75.52700 59.99907 5.78734 0.23700
75.04809 52.82870 5.96145 0.20184
12.76303 -146.20908 2.18263 0.14669
11.84553 -120.00093 1.59364 0.10824
12.76303 -93.79278 1.55914 0.11501
68.66734 67.31318 11.33555 0.33616
69.06442 59.99907 3.77190 0.20347
68.66734 52.68496 4.27914 0.17255
12.76303 -176.20864 2.19626 0.13876
11.84553 -150.00050 2.22364 0.11737
12.76303 -123.79235 2.19361 0.13025
68.66734 37.31362 12.57485 0.34934
69.06442 29.99950 11.20836 0.33388
68.66734 22.68539 7.19682 0.22954
12.76303 153.79179 2.24354 0.13911
11.84553 179.99994 2.20114 0.11730
12.76303 -153.79191 3.03861 0.15174
68.66734 7.31405 3.59644 0.18611
69.06442 -0.00006 2.07209 0.15256
68.66734 -7.31417 2.85133 0.14651
12.76303 123.79223 1.52283 0.11614
11.84553 150.00038 1.99616 0.11074
12.76303 176.20852 2.72944 0.13797
68.66734 -22.68551 7.61451 0.28147
69.06442 -29.99962 11.34724 0.33798
68.66734 -37.31374 16.70814 0.35199
12.76303 93.79138 0.94912 0.10336
11.84553 119.99952 1.39788 0.09657
12.76303 146.20767 2.17773 0.12446
68.66734 -52.68636 8.35404 0.29799
69.06442 -60.00048 4.98247 0.23157
68.66734 -67.31459 11.06337 0.28638
12.76303 63.79824 1.62302 0.12330
11.84553 90.00639 1.04159 0.09023
12.76303 116.21454 1.46109 0.10295
68.66734 -82.67950 17.77565 0.44071
69.06442 -89.99361 13.37065 0.37166
68.66734 -97.30772 16.58729 0.35388
12.76303 33.79353 2.18720 0.13816
11.84553 60.00168 1.52279 0.10258
12.76303 86.20983 1.15142 0.10229
68.66734 -112.68421 13.92827 0.36552
69.06442 -119.99832 4.82265 0.21399
68.66734 -127.31243 4.26069 0.17336
12.76303 3.79397 2.61262 0.15745
11.84553 30.00212 2.09393 0.11583
12.76303 56.21026 1.69261 0.11161
68.66734 -142.68377 14.37471 0.35551
69.06442 -149.99788 12.30602 0.33897
68.66734 -157.31200 7.48081 0.22494
12.76303 -26.20560 2.88588 0.15684
11.84553 0.00255 2.54237 0.13159
12.76303 26.21070 2.79018 0.13579
68.66734 -172.68334 3.70191 0.18447
69.06442 -179.99745 1.63863 0.13446
68.66734 172.68844 2.18046 0.12602
12.76303 -56.20645 2.06516 0.13962
11.84553 -29.99830 2.38072 0.12428
12.76303 -3.79015 3.31898 0.15076
68.66734 157.31581 5.29961 0.23786
69.06442 150.00170 8.20458 0.28518
68.66734 142.68759 12.78707 0.29455
12.76303 -86.20730 1.39378 0.11541
11.84553 -59.99915 1.61740 0.10513
12.76303 -33.79100 2.78342 0.13722
68.66734 127.31496 6.79135 0.26300
69.06442 120.00085 3.01283 0.17243
68.66734 112.68674 8.60489 0.24300
12.76303 -116.20815 1.66630 0.12195
11.84553 -90.00000 1.25881 0.09479
12.76303 -63.79185 2.46503 0.13317
68.66734 97.31411 15.07733 0.37076
69.06442 90.00000 10.80231 0.33118
68.66734 82.68589 13.85658 0.31817
16.46989 -110.28705 3.52780 0.17667
15.86376 -90.00000 2.89674 0.13935
16.46989 -69.71295 4.02982 0.17552
62.70303 97.52128 12.85888 0.35938
63.02687 90.00000 7.41511 0.28062
62.70303 82.47872 11.02073 0.29086
16.46989 -80.28877 3.01492 0.16810
15.86376 -60.00172 3.91605 0.15741
16.46989 -39.71467 7.02253 0.22809
62.70303 127.51955 4.37678 0.21237
63.02687 119.99828 2.56206 0.16480
62.70303 112.47700 9.65932 0.26217
16.46989 -50.28792 4.91512 0.20852
15.86376 -30.00087 6.46527 0.20388
16.46989 -9.71382 12.06981 0.30334
62.70303 157.52041 2.80421 0.16572
63.02687 149.99913 4.57769 0.22281
62.70303 142.47785 8.96274 0.23798
16.46989 -20.29093 9.04388 0.28033
15.86376 -0.00388 9.76269 0.26229
16.46989 20.28318 7.96943 0.23461
62.70303 -172.48260 2.15804 0.14853
63.02687 179.99612 1.18544 0.11120
62.70303 172.47485 1.29631 0.09965
16.46989 9.70864 8.89901 0.27931
15.86376 29.99569 4.95437 0.18045
16.46989 50.28274 3.57664 0.16450
62.70303 -142.48304 9.49346 0.30454
63.02687 -150.00431 7.31475 0.27849
62.70303 -157.52559 3.95821 0.16272
16.46989 39.71077 4.45705 0.19392
15.86376 59.99782 2.69546 0.13585
16.46989 80.28488 2.03915 0.12174
62.70303 -112.48090 13.68626 0.36430
63.02687 -120.00218 4.23714 0.21031
62.70303 -127.52345 3.15731 0.15555
16.46989 69.70905 2.31250 0.14482
15.86376 89.99610 1.82173 0.11687
16.46989 110.28316 2.82405 0.14725
62.70303 -82.48262 14.22338 0.37337
63.02687 -90.00390 9.34364 0.31325
62.70303 -97.52517 13.02675 0.29823
16.46989 99.70990 1.62939 0.12271
15.86376 119.99695 2.65306 0.13068
16.46989 140.28401 4.68915 0.18256
62.70303 -52.48177 5.96175 0.25517
63.02687 -60.00305 3.40086 0.19010
62.70303 -67.52432 10.74465 0.27059
16.46989 129.71204 3.49873 0.17481
15.86376 149.99909 4.74730 0.18457
16.46989 170.28614 9.53032 0.26855
62.70303 -22.47963 3.28659 0.18665
63.02687 -30.00091 6.14908 0.24683
62.70303 -37.52219 11.53317 0.28659
16.46989 159.71160 6.10207 0.22251
15.86376 179.99865 7.84279 0.22859
16.46989 -159.71429 7.64334 0.23210
62.70303 7.51993 2.27722 0.15365
63.02687 -0.00135 1.09328 0.11508
62.70303 -7.52262 1.77288 0.11123
16.46989 -170.29012 7.62759 0.25635
15.86376 -150.00307 5.36086 0.18461
16.46989 -129.71601 4.92779 0.18161
62.70303 37.51821 9.24787 0.29503
63.02687 29.99693 6.59183 0.24299
62.70303 22.47566 3.30373 0.15879
16.46989 -140.28927 4.93235 0.19959
15.86376 -120.00222 3.50825 0.16344
16.46989 -99.71516 3.55621 0.16350
62.70303 67.51906 11.61273 0.32858
63.02687 59.99778 3.78341 0.20061
62.70303 52.47651 3.17642 0.15362
20.35407 -136.58209 12.13824 0.32299
19.94675 -120.00222 8.38191 0.23449
20.35407 -103.42234 8.31704 0.24164
57.08758 67.79872 12.68134 0.33960
57.34405 59.99778 4.39784 0.21474
57.08758 52.19684 2.56110 0.14065
20.35407 -166.58166 23.91553 0.46720
19.94675 -150.00178 14.94781 0.32240
20.35407 -133.42191 10.64227 0.26799
57.08758 37.79916 7.91558 0.27649
57.34405 29.99822 5.97177 0.25051
57.08758 22.19728 2.98661 0.13960
20.35407 163.42007 23.64752 0.46838
19.94675 179.99994 28.24127 0.48846
20.35407 -163.42019 22.82128 0.43731
57.08758 7.80088 1.48418 0.13016
57.34405 -0.00006 1.02939 0.10619
57.08758 -7.80100 1.36861 0.10527
20.35407 133.42050 8.92769 0.26893
19.94675 150.00038 15.38882 0.31474
20.35407 166.58025 30.89752 0.51579
57.08758 -22.19869 2.52969 0.16427
57.34405 -29.99962 4.50390 0.21794
57.08758 -37.80056 8.91703 0.24943
20.35407 103.41965 4.62721 0.20336
19.94675 119.99952 6.09445 0.20149
20.35407 136.57940 11.74397 0.30110
57.08758 -52.19954 4.30003 0.20916
57.34405 -60.00048 3.28717 0.19233
57.08758 -67.80141 12.00049 0.29221
20.35407 73.42137 5.44592 0.22326
19.94675 90.00125 4.89999 0.17571
20.35407 106.58112 5.85193 0.20045
57.08758 -82.19782 13.62585 0.35250
57.34405 -89.99875 6.62554 0.26118
57.08758 -97.79969 10.31228 0.27267
20.35407 43.42181 10.51433 0.29458
19.94675 60.00168 5.86955 0.19517
20.35407 76.58156 5.17680 0.19606
57.08758 -112.19738 14.67322 0.37193
57.34405 -119.99832 5.52879 0.23453
57.08758 -127.79926 2.78238 0.14528
20.35407 13.42096 26.98995 0.49513
19.94675 30.00083 14.06133 0.31149
20.35407 46.58071 9.06535 0.24763
57.08758 -142.19823 8.33997 0.28571
57.34405 -149.99917 6.25349 0.25688
57.08758 -157.80011 2.88259 0.14016
20.35407 -16.57861 27.09946 0.49513
19.94675 0.00127 32.01018 0.51067
20.35407 16.58114 24.65122 0.44386
57.08758 -172.19780 1.56346 0.13012
57.34405 -179.99873 0.91017 0.10150
57.08758 172.20033 0.92461 0.08476
20.35407 -46.57817 12.60999 0.33930
19.94675 -29.99830 19.44042 0.38294
20.35407 -13.41842 33.66513 0.53296
57.08758 157.80264 2.35743 0.15494
57.34405 150.00170 3.96678 0.19287
57.08758 142.20076 8.64577 0.23257
20.35407 -76.57902 7.08090 0.24153
19.94675 -59.99915 9.47425 0.24495
20.35407 -43.41927 16.45661 0.35025
57.08758 127.80179 4.05968 0.20068
57.34405 120.00085 3.15060 0.17623
57.08758 112.19991 11.58920 0.28424
20.35407 -106.57987 7.73252 0.25081
19.94675 -90.00000 7.29476 0.22195
20.35407 -73.42013 8.46438 0.23899
57.08758 97.80094 12.43257 0.36055
57.34405 90.00000 5.96714 0.25575
57.08758 82.19906 9.46211 0.25349
24.37601 -104.08165 12.57757 0.32734
24.10869 -90.00000 10.55687 0.25854
24.37601 -75.91835 14.18099 0.32203
51.77717 98.16569 12.14988 0.34532
51.96990 90.00000 4.64119 0.22250
51.77717 81.83431 9.07254 0.25036
24.37601 -74.08466 12.63498 0.31796
24.10869 -60.00301 18.96153 0.35468
24.37601 -45.92135 29.51532 0.47749
51.77717 128.16269 3.86374 0.19435
51.96990 119.99699 4.13870 0.21654
51.77717 111.83130 14.37586 0.31847
24.37601 -44.08252 25.44389 0.47209
24.10869 -30.00087 33.01729 0.49320
24.37601 -15.91922 48.93309 0.63197
51.77717 158.16482 2.46709 0.17304
51.96990 149.99913 4.17868 0.21432
51.77717 141.83344 7.54751 0.22934
24.37601 -14.08553 45.72464 0.67777
24.10869 -0.00388 51.15040 0.63181
24.37601 14.07778 43.89250 0.58207
51.77717 -171.83818 1.47787 0.12736
51.96990 179.99612 0.60608 0.08618
51.77717 171.83043 0.86881 0.08566
24.37601 15.91403 43.53464 0.61861
24.10869 29.99569 28.86221 0.46916
24.37601 44.07734 21.36860 0.38832
51.77717 -141.83862 6.60258 0.25011
51.96990 -150.00431 6.29377 0.25369
51.77717 -158.17000 3.22857 0.15700
24.37601 45.91617 22.32569 0.44135
24.10869 59.99782 13.14716 0.29758
24.37601 74.07948 10.22739 0.24979
51.77717 -111.83648 15.57271 0.37906
51.96990 -120.00218 7.23014 0.26046
51.77717 -128.16787 2.88618 0.14611
24.37601 75.91445 10.63468 0.30140
24.10869 89.99610 9.35496 0.25274
24.37601 104.07776 11.45014 0.28644
51.77717 -81.83820 12.07069 0.33679
51.96990 -90.00390 5.23752 0.23679
51.77717 -98.16959 9.09650 0.24688
24.37601 105.91530 9.80594 0.29587
24.10869 119.99695 13.86200 0.29731
24.37601 134.07861 24.59757 0.42504
51.77717 -51.83735 4.08284 0.20228
51.96990 -60.00305 4.40717 0.21366
51.77717 -68.16874 14.16207 0.31042
24.37601 135.91744 20.86319 0.42248
24.10869 149.99909 30.43333 0.48886
24.37601 164.08074 49.40964 0.65118
51.77717 -21.83522 2.82916 0.17333
51.96990 -30.00091 5.05171 0.23131
51.77717 -38.16660 8.40940 0.23881
24.37601 165.91700 46.17378 0.65437
24.10869 179.99865 47.92547 0.62797
24.37601 -165.91969 39.14218 0.57366
51.77717 8.16435 1.46518 0.12404
51.96990 -0.00135 0.76521 0.09749
51.77717 -8.16704 1.21299 0.09854
24.37601 -164.08472 40.63054 0.60915
24.10869 -150.00307 28.81884 0.46949
24.37601 -135.92141 23.82149 0.42247
51.77717 38.16263 6.56839 0.25108
51.96990 29.99693 5.97943 0.24348
51.77717 21.83124 3.22634 0.15191
24.37601 -134.08258 24.65960 0.47778
24.10869 -120.00093 16.48534 0.34105
24.37601 -105.91928 12.99037 0.28031
51.77717 68.16476 14.51591 0.38156
51.96990 59.99907 5.59090 0.23792
51.77717 51.83338 3.07468 0.15100
28.52653 -132.30824 31.25286 0.54775
28.36567 -120.00093 24.29829 0.42266
28.52653 -107.69362 14.30029 0.30841
46.73358 68.63253 17.50851 0.40699
46.86401 59.99907 9.77063 0.31619
46.73358 51.36561 3.92138 0.17494
28.52653 -162.30781 34.72772 0.54551
28.36567 -150.00050 31.18583 0.49471
28.52653 -137.69318 31.88198 0.49277
46.73358 38.63297 6.39398 0.25678
46.86401 29.99950 6.63474 0.25923
46.73358 21.36604 4.02982 0.16960
28.52653 167.69263 39.79134 0.59340
28.36567 179.99994 35.80391 0.53006
28.52653 -167.69275 33.68974 0.49467
46.73358 8.63340 1.72674 0.13984
46.86401 -0.00006 0.70282 0.09567
46.73358 -8.63352 1.52704 0.11175
28.52653 137.69306 31.26846 0.52261
28.36567 150.00038 32.35914 0.49676
28.52653 162.30769 38.03866 0.54305
46.73358 -21.36616 3.53629 0.20109
46.86401 -29.99962 5.95795 0.24483
46.73358 -38.63309 8.23744 0.24290
28.52653 107.69221 15.19052 0.36321
28.36567 119.99952 22.88118 0.40124
28.52653 132.30684 30.95351 0.48703
46.73358 -51.36701 3.95709 0.20106
46.86401 -60.00048 6.51754 0.26310
46.73358 -68.63394 18.13149 0.36757
28.52653 77.69908 12.17749 0.32984
28.36567 90.00639 9.37235 0.23269
28.52653 102.31370 15.48070 0.34983
46.73358 -81.36015 12.30979 0.35634
46.86401 -89.99361 4.34193 0.21773
46.73358 -98.62707 8.66150 0.24731
28.52653 47.69180 28.71928 0.50821
28.36567 59.99911 20.56469 0.38014
28.52653 72.30642 13.82941 0.32486
46.73358 -111.36743 17.56949 0.40576
46.86401 -120.00089 10.29545 0.34965
46.73358 -128.63435 3.85655 0.16525
28.52653 17.69223 37.12467 0.57373
28.36567 29.99954 31.31931 0.47447
28.52653 42.30686 31.02281 0.49692
46.73358 -141.36699 6.21687 0.23460
46.86401 -150.00046 7.22255 0.27504
46.73358 -158.63392 4.43035 0.18632
28.52653 -12.30347 36.34347 0.55042
28.36567 0.00384 34.27972 0.49460
28.52653 12.31115 36.15391 0.51435
46.73358 -171.36270 2.01371 0.14958
46.86401 -179.99616 0.89225 0.10912
46.73358 171.37037 1.19176 0.09952
28.52653 -42.30561 31.16937 0.53773
28.36567 -29.99830 29.98275 0.45654
28.52653 -17.69099 35.31493 0.50474
46.73358 158.63516 3.34615 0.18698
46.86401 150.00170 6.25521 0.24897
46.73358 141.36824 8.19570 0.24442
28.52653 -72.30518 16.88718 0.37047
28.36567 -59.99786 25.63142 0.42072
28.52653 -47.69055 31.44236 0.47410
46.73358 128.63560 4.12800 0.20674
46.86401 120.00214 6.90238 0.27801
46.73358 111.36867 19.46328 0.37229
28.52653 -102.29960 13.13752 0.33885
28.36567 -89.99229 8.54481 0.23252
28.52653 -77.68497 17.07507 0.35780
46.73358 98.64118 11.67569 0.33674
46.86401 90.00771 4.00842 0.20312
46.73358 81.37425 9.10192 0.25146
32.82102 -100.98828 10.96362 0.31144
32.74665 -89.99229 5.92822 0.20068
32.82102 -78.99629 17.92982 0.35737
41.91203 99.23929 13.36525 0.34621
41.97916 90.00771 3.43524 0.19412
41.91203 80.77613 9.49358 0.25516
32.82102 -70.99900 21.12615 0.43536
32.74665 -60.00301 25.42839 0.41737
32.82102 -49.00702 22.47505 0.40686
41.91203 129.22857 6.28081 0.25785
41.97916 119.99699 12.21047 0.37135
41.91203 110.76541 22.98757 0.39869
32.82102 -40.99943 21.81284 0.42595
32.74665 -30.00344 19.96227 0.36343
32.82102 -19.00745 16.08204 0.32860
41.91203 159.22814 4.65698 0.21897
41.97916 149.99656 8.39948 0.29185
41.91203 140.76498 8.25391 0.25096
32.82102 -10.99730 14.98937 0.34660
32.74665 -0.00131 12.27720 0.27475
32.82102 10.99469 16.94407 0.33421
41.91203 -170.76973 3.11336 0.18259
41.97916 179.99869 1.17381 0.11559
41.91203 170.76711 1.89541 0.11946
32.82102 18.99841 20.68434 0.41980
32.74665 29.99440 22.90632 0.38519
32.82102 40.99039 25.63396 0.41351
41.91203 -140.77402 5.69699 0.23506
41.97916 -150.00560 8.12540 0.30223
41.91203 -159.23718 6.43130 0.22204
32.82102 49.00183 27.04973 0.50693
32.74665 59.99782 26.47123 0.43923
32.82102 70.99381 16.61464 0.34060
41.91203 -110.77060 19.17612 0.45823
41.97916 -120.00218 15.92065 0.42312
41.91203 -129.23376 6.39530 0.21666
32.82102 79.00140 11.21474 0.31106
32.74665 89.99739 7.09569 0.20988
32.82102 100.99338 17.54110 0.35329
41.91203 -80.77103 13.67618 0.38009
41.97916 -90.00261 3.91953 0.20055
41.91203 -99.23419 9.43493 0.25329
32.82102 109.00096 20.77348 0.43688
32.74665 119.99695 25.70490 0.42075
32.82102 130.99294 25.00803 0.43696
41.91203 -50.77147 5.06351 0.23709
41.97916 -60.00305 11.05194 0.34805
41.91203 -69.23463 21.92886 0.39518
32.82102 139.00181 25.47589 0.46023
32.74665 149.99780 22.34983 0.38449
32.82102 160.99379 18.09438 0.35877
41.91203 -20.77062 5.45893 0.23908
41.97916 -30.00220 7.80168 0.28221
41.91203 -39.23378 7.95744 0.23638
32.82102 169.00266 16.96701 0.36641
32.74665 179.99865 13.23169 0.26865
32.82102 -169.00535 17.62027 0.34982
41.91203 9.23023 2.57272 0.16231
41.97916 -0.00135 1.04425 0.11209
41.91203 -9.23293 1.96621 0.12750
32.82102 -160.99906 21.72976 0.43578
32.74665 -150.00307 21.26875 0.38677
32.82102 -139.00708 24.77940 0.44492
41.91203 39.22851 6.12591 0.25329
41.97916 29.99693 8.45414 0.30113
41.91203 20.76535 5.83168 0.19910
32.82102 -130.99821 27.43914 0.49947
32.74665 -120.00222 27.92463 0.45256
32.82102 -109.00623 16.03029 0.35491
41.91203 69.22936 20.06861 0.44159
41.97916 59.99778 15.00214 0.38971
41.91203 50.76620 6.01908 0.20867
37.27288 -130.00345 16.28367 0.38167
37.27278 -120.00222 25.17560 0.43520
37.27288 -110.00098 18.78938 0.34939
37.28556 69.99659 20.85812 0.45877
37.28566 59.99778 22.41082 0.49628
37.28556 49.99898 12.74432 0.31166
37.27288 -160.00173 11.83296 0.31110
37.27278 -150.00050 12.54838 0.28178
37.27288 -139.99926 12.55373 0.30033
37.28556 39.99831 10.74407 0.33737
37.28566 29.99950 11.23229 0.34456
37.28556 20.00070 8.77339 0.24893
37.27288 169.99871 5.61779 0.20651
37.27278 179.99994 3.64886 0.15149
37.27288 -169.99883 8.13271 0.23067
37.28556 9.99874 4.51411 0.22348
37.28566 -0.00006 2.21077 0.14769
37.28556 -9.99886 4.47806 0.17994
37.27288 139.99914 13.86462 0.33819
37.27278 150.00038 13.47136 0.28805
37.27288 160.00161 8.21383 0.23609
37.28556 -20.00082 7.14941 0.27692
37.28566 -29.99962 11.82451 0.33903
37.28556 -39.99843 9.82607 0.26392
37.27288 109.99958 22.72417 0.46167
37.27278 120.00081 19.77530 0.36146
37.27288 130.00204 13.74735 0.31332
37.28556 -50.00039 9.84730 0.31391
37.28566 -59.99919 19.17483 0.43986
37.28556 -69.99799 25.39910 0.44898
37.27288 79.99873 9.41590 0.28812
37.27278 89.99996 4.63231 0.17293
37.27288 100.00119 16.81443 0.34652
37.28556 -80.00124 15.37570 0.38101
37.28566 -90.00004 3.94198 0.20586
37.28556 -99.99884 10.72913 0.27955
37.27288 50.00816 16.54573 0.37242
37.27278 60.00940 23.92136 0.40769
37.27288 70.01063 18.88746 0.37116
37.28556 -109.99180 20.07000 0.45914
37.28566 -119.99060 23.46157 0.51466
37.28556 -129.98941 12.81023 0.30800
37.27288 19.99960 11.18123 0.31282
37.27278 30.00083 13.10043 0.29418
37.27288 40.00206 13.83442 0.31159
37.28556 -140.00037 9.25805 0.29279
37.28566 -149.99917 10.97560 0.35132
37.28556 -159.99797 10.11639 0.26179
37.27288 -9.99997 5.13910 0.21253
37.27278 0.00127 3.11758 0.13815
37.27288 10.00250 6.37055 0.21074
37.28556 -169.99993 5.56234 0.24183
37.28566 -179.99873 2.62345 0.15964
37.28556 170.00246 3.96891 0.16568
37.27288 -39.99953 11.36861 0.30869
37.27278 -29.99830 12.39590 0.27764
37.27288 -19.99707 8.23243 0.24156
37.28556 160.00050 7.79217 0.28263
37.28566 150.00170 12.44493 0.36344
37.28556 140.00290 11.74652 0.28867
37.27288 -70.00167 23.43484 0.47222
37.27278 -60.00044 17.85695 0.33936
37.27288 -49.99920 10.28716 0.27952
37.28556 129.99837 12.42509 0.36193
37.28566 119.99956 22.55513 0.51961
37.28556 110.00076 25.68884 0.45645
37.27288 -99.99995 8.58454 0.28052
37.27278 -89.99871 4.58255 0.17635
37.27288 -79.99748 16.85843 0.34445
37.28556 100.00009 14.92196 0.38336
37.28566 90.00129 4.19409 0.21457
37.28556 80.00248 11.86156 0.30085
