VULCAN
alpha beta intensity
Single peak fit using lmfit routine (P-V profile) at 2022-07-30 19:21:49.170374
5.55713 176.45997 0.55988 0.08231
0.00000 90.00000 0.06700 0.04191
5.55713 3.54003 0.89527 0.08695
89.31892 97.05324 9.39260 0.32127
90.00000 -90.00000 8.87834 0.32467
89.31892 82.94676 9.68264 0.28052
5.55713 -153.54175 0.44523 0.07948
0.00000 119.99828 0.12953 0.05135
5.55713 33.53831 0.60600 0.07913
89.31892 127.05152 6.08000 0.25837
90.00000 -60.00172 5.54304 0.25692
89.31892 112.94504 7.35671 0.23936
5.55713 -123.54090 0.36324 0.07277
0.00000 149.99913 0.18104 0.05440
5.55713 63.53916 0.18191 0.05398
89.31892 157.05237 13.72405 0.39817
90.00000 -30.00087 11.55116 0.38086
89.31892 142.94589 10.65984 0.29728
5.55713 -93.54134 0.18290 0.05871
0.00000 179.99869 0.13435 0.04718
5.55713 93.53873 0.29889 0.05998
89.31892 -172.94807 15.28500 0.42433
90.00000 -0.00131 15.53699 0.42278
89.31892 172.94546 15.25303 0.35114
5.55713 -63.54306 0.48756 0.08392
0.00000 -150.00303 0.15557 0.04906
5.55713 123.53700 0.47630 0.07298
89.31892 -142.94979 9.01252 0.31850
90.00000 29.99697 11.60706 0.37327
89.31892 -157.05627 13.43682 0.32479
5.55713 -33.54092 0.62461 0.08589
0.00000 -120.00089 0.06762 0.04315
5.55713 153.53914 0.68984 0.07998
89.31892 -112.94765 9.03751 0.32471
90.00000 59.99911 6.27781 0.26507
89.31892 -127.05413 6.30098 0.22897
5.55713 -3.54136 0.65242 0.08630
0.00000 -90.00133 0.16130 0.05100
5.55713 -176.46129 0.90923 0.09158
89.31892 -82.94809 10.83898 0.35299
90.00000 89.99867 10.25698 0.34862
89.31892 -97.05456 10.24256 0.28203
5.55713 26.45692 0.56537 0.08682
0.00000 -60.00305 0.14414 0.04829
5.55713 -146.46302 0.63277 0.07971
89.31892 -52.94981 7.27085 0.29059
90.00000 119.99695 6.86607 0.28003
89.31892 -67.05629 8.99281 0.26874
5.55713 56.45906 0.35239 0.07302
0.00000 -30.00091 0.18392 0.05153
5.55713 -116.46088 0.40693 0.06934
89.31892 -22.94767 15.47215 0.44701
90.00000 149.99909 13.42856 0.39870
89.31892 -37.05415 11.91292 0.30525
5.55713 86.45862 0.18770 0.05899
0.00000 -0.00135 0.15325 0.04786
5.55713 -86.46131 0.46336 0.07168
89.31892 7.05189 15.65578 0.44694
90.00000 179.99865 17.05522 0.46183
89.31892 -7.05458 16.80824 0.36079
5.55713 116.45690 0.25148 0.06120
0.00000 29.99693 0.19025 0.05276
5.55713 -56.46304 0.50221 0.07369
89.31892 37.05017 9.32279 0.32945
90.00000 -150.00307 11.54469 0.36544
89.31892 22.94369 13.46442 0.34622
5.55713 146.45904 0.45170 0.07571
0.00000 59.99907 0.20532 0.05695
5.55713 -26.46090 0.79144 0.08608
89.31892 67.05231 7.28250 0.28723
90.00000 -120.00093 5.52394 0.25216
89.31892 52.94583 5.66729 0.21901
6.60131 -177.30280 0.72795 0.09015
3.92476 -120.00093 0.20637 0.05308
6.60131 -62.69906 0.70902 0.08269
81.90616 67.08360 7.68697 0.30104
82.47848 59.99907 6.27479 0.26646
81.90616 52.91454 6.08909 0.22114
6.60131 152.69764 0.68027 0.08977
3.92476 -150.00050 0.21952 0.05607
6.60131 -92.69863 0.44710 0.07291
81.90616 37.08404 9.73070 0.31892
82.47848 29.99950 11.82690 0.37685
81.90616 22.91497 14.02349 0.35052
6.60131 122.69807 0.36231 0.06781
3.92476 179.99994 0.35055 0.05882
6.60131 -122.69819 0.45806 0.07024
81.90616 7.08447 16.80029 0.45162
82.47848 -0.00006 17.23386 0.46612
81.90616 -7.08459 18.32720 0.40296
6.60131 92.69851 0.35263 0.07333
3.92476 150.00038 0.34233 0.06291
6.60131 -152.69776 1.00299 0.09318
81.90616 -22.91509 14.58458 0.44445
82.47848 -29.99962 13.75152 0.42239
81.90616 -37.08416 12.31459 0.32542
6.60131 62.69766 0.39970 0.07336
3.92476 119.99952 0.16523 0.05210
6.60131 177.30139 0.86609 0.08513
81.90616 -52.91594 7.06084 0.29028
82.47848 -60.00048 6.95755 0.29810
81.90616 -67.08501 8.98200 0.26715
6.60131 32.69809 0.74548 0.09368
3.92476 89.99996 0.16651 0.05150
6.60131 147.30183 0.74290 0.08406
81.90616 -82.91551 10.96368 0.36051
82.47848 -90.00004 10.10564 0.36336
81.90616 -97.08457 10.51706 0.29383
6.60131 2.69724 0.98669 0.10237
3.92476 59.99911 0.22939 0.05451
6.60131 117.30098 0.51169 0.07546
81.90616 -112.91636 9.21431 0.31351
82.47848 -120.00089 6.56967 0.28231
81.90616 -127.08542 6.45449 0.23445
6.60131 -27.30232 0.83244 0.09758
3.92476 29.99954 0.25428 0.05704
6.60131 87.30141 0.27355 0.06082
81.90616 -142.91592 9.15936 0.31466
82.47848 -150.00046 11.59930 0.36872
81.90616 -157.08499 12.77926 0.33967
6.60131 -57.30189 0.45642 0.07682
3.92476 -0.00002 0.42471 0.06463
6.60131 57.30185 0.36066 0.06501
81.90616 -172.91549 16.00107 0.44271
82.47848 179.99998 16.50520 0.45449
81.90616 172.91545 16.59299 0.37025
6.60131 -87.30145 0.26440 0.06773
3.92476 -29.99958 0.35058 0.06142
6.60131 27.30228 0.89209 0.08932
81.90616 157.08495 14.17109 0.41329
82.47848 150.00042 11.22861 0.37796
81.90616 142.91588 10.79318 0.29412
6.60131 -117.30230 0.35257 0.07279
3.92476 -60.00044 0.13269 0.04825
6.60131 -2.69857 1.20358 0.09968
81.90616 127.08410 6.77033 0.25888
82.47848 119.99956 6.51377 0.27615
81.90616 112.91503 8.69173 0.25903
6.60131 -147.30187 0.77013 0.09421
3.92476 -90.00000 0.22511 0.05666
6.60131 -32.69813 0.87344 0.08799
81.90616 97.08453 9.92231 0.34074
82.47848 90.00000 9.55925 0.34023
81.90616 82.91547 10.39075 0.29244
9.34588 -126.69781 0.98693 0.10503
7.86923 -90.00000 0.36189 0.06267
9.34588 -53.30219 1.47214 0.11318
75.04809 97.17037 9.87955 0.33419
75.52700 90.00000 10.70440 0.35216
75.04809 82.82963 10.65826 0.30191
9.34588 -96.69953 0.41412 0.07506
7.86923 -60.00172 0.86265 0.08701
9.34588 -23.30391 2.78908 0.14966
75.04809 127.16864 7.08624 0.28589
75.52700 119.99828 6.62814 0.27555
75.04809 112.82791 8.97389 0.26332
9.34588 -66.69868 0.59994 0.08829
7.86923 -30.00087 1.48040 0.10685
9.34588 6.69694 2.88693 0.15289
75.04809 157.16950 10.12736 0.33248
75.52700 149.99913 9.49651 0.33794
75.04809 142.82876 9.00840 0.27064
9.34588 -36.69912 1.98709 0.14196
7.86923 -0.00131 1.66985 0.11404
9.34588 36.69651 1.72135 0.11772
75.04809 -172.83094 12.57835 0.35721
75.52700 179.99869 13.99402 0.39728
75.04809 172.82833 13.35200 0.32198
9.34588 -6.70212 2.41346 0.15673
7.86923 29.99569 0.91699 0.08580
9.34588 66.69350 0.45180 0.07153
75.04809 -142.83395 9.05788 0.31266
75.52700 -150.00431 9.95324 0.34796
75.04809 -157.17468 10.91202 0.30151
9.34588 23.30130 1.99110 0.13785
7.86923 59.99911 0.40456 0.06455
9.34588 96.69692 0.53367 0.07910
75.04809 -112.83052 10.33600 0.34440
75.52700 -120.00089 7.68405 0.30593
75.04809 -127.17126 7.23651 0.23797
9.34588 53.29700 0.83342 0.09724
7.86923 89.99482 0.26027 0.05906
9.34588 126.69263 0.98333 0.09504
75.04809 -82.83482 10.78079 0.35721
75.52700 -90.00518 10.72501 0.35856
75.04809 -97.17555 11.12300 0.31587
9.34588 83.29914 0.41667 0.07552
7.86923 119.99695 0.47767 0.06946
9.34588 156.69477 1.98522 0.12889
75.04809 -52.83268 7.47052 0.29087
75.52700 -60.00305 7.84407 0.29975
75.04809 -67.17341 9.89154 0.27786
9.34588 113.30128 0.50364 0.08316
7.86923 149.99909 0.98947 0.08941
9.34588 -173.30310 2.43398 0.13803
75.04809 -22.83054 12.41797 0.38947
75.52700 -30.00091 11.95946 0.38102
75.04809 -37.17128 10.63585 0.29068
9.34588 143.30084 1.54306 0.12252
7.86923 179.99865 1.34726 0.09962
9.34588 -143.30353 1.61312 0.11785
75.04809 7.16902 13.77560 0.39289
75.52700 -0.00135 14.42698 0.40987
75.04809 -7.17171 15.43179 0.34770
9.34588 173.29912 2.16536 0.14975
7.86923 -150.00307 1.20997 0.09476
9.34588 -113.30525 0.56469 0.07906
75.04809 37.16730 9.03218 0.32583
75.52700 29.99693 9.76397 0.32497
75.04809 22.82657 10.82268 0.28955
9.34588 -156.69874 1.71135 0.12892
7.86923 -120.00093 0.54789 0.07458
9.34588 -83.30312 0.68899 0.08702
75.04809 67.16944 9.02394 0.31655
75.52700 59.99907 6.59382 0.26717
75.04809 52.82870 6.61910 0.22436
12.76303 -146.20908 4.45815 0.21698
11.84553 -120.00093 1.16805 0.09957
12.76303 -93.79278 0.99773 0.09930
68.66734 67.31318 9.43282 0.32443
69.06442 59.99907 6.79480 0.28548
68.66734 52.68496 6.50773 0.22266
12.76303 -176.20864 5.17288 0.21952
11.84553 -150.00050 3.67008 0.15624
12.76303 -123.79235 1.81516 0.12640
68.66734 37.31362 6.05041 0.25877
69.06442 29.99950 6.87096 0.27858
68.66734 22.68539 6.49193 0.23012
12.76303 153.79179 4.49474 0.20415
11.84553 179.99994 5.17818 0.18529
12.76303 -153.79191 4.99240 0.20230
68.66734 7.31405 7.86973 0.28528
69.06442 -0.00006 9.45124 0.33290
68.66734 -7.31417 9.43869 0.27392
12.76303 123.79223 1.73107 0.13084
11.84553 150.00038 3.69539 0.15521
12.76303 176.20852 6.24399 0.21492
68.66734 -22.68551 7.91109 0.30286
69.06442 -29.99962 7.77717 0.29758
68.66734 -37.31374 7.97451 0.25909
12.76303 93.79138 0.67505 0.09483
11.84553 119.99952 1.26383 0.09724
12.76303 146.20767 4.49867 0.18462
68.66734 -52.68636 7.21461 0.29370
69.06442 -60.00048 8.22907 0.31120
68.66734 -67.31459 10.21550 0.29069
12.76303 63.79824 1.21411 0.11391
11.84553 90.00639 0.53620 0.07310
12.76303 116.21454 1.67302 0.11441
68.66734 -82.67950 10.58685 0.36101
69.06442 -89.99361 11.22919 0.36058
68.66734 -97.30772 11.27707 0.30925
12.76303 33.79353 4.02289 0.19419
11.84553 60.00168 1.09829 0.09471
12.76303 86.20983 0.50922 0.07644
68.66734 -112.68421 10.01453 0.32815
69.06442 -119.99832 7.90975 0.28810
68.66734 -127.31243 6.92470 0.23095
12.76303 3.79397 6.42867 0.25533
11.84553 30.00212 3.11620 0.14712
12.76303 56.21026 1.50588 0.11248
68.66734 -142.68377 6.40686 0.25320
69.06442 -149.99788 6.64893 0.26529
68.66734 -157.31200 6.48680 0.22140
12.76303 -26.20560 5.85414 0.23262
11.84553 0.00255 5.71667 0.20398
12.76303 26.21070 5.32450 0.19416
68.66734 -172.68334 7.50354 0.27287
69.06442 -179.99745 8.13746 0.30428
68.66734 172.68844 7.24911 0.23438
12.76303 -56.20645 2.37983 0.15745
11.84553 -29.99830 4.78472 0.18231
12.76303 -3.79015 7.01780 0.22708
68.66734 157.31581 6.00226 0.26640
69.06442 150.00170 6.09408 0.26140
68.66734 142.68759 6.34691 0.22123
12.76303 -86.20730 0.62997 0.08833
11.84553 -59.99915 1.85580 0.11865
12.76303 -33.79100 5.96685 0.20634
68.66734 127.31496 5.53753 0.25193
69.06442 120.00085 7.29858 0.27845
68.66734 112.68674 9.08409 0.26284
12.76303 -116.20815 1.32670 0.11689
11.84553 -90.00000 0.73339 0.08004
12.76303 -63.79185 2.49668 0.14084
68.66734 97.31411 9.00095 0.30410
69.06442 90.00000 10.34939 0.34289
68.66734 82.68589 10.10638 0.28812
16.46989 -110.28705 2.00222 0.14358
15.86376 -90.00000 1.52159 0.10960
16.46989 -69.71295 2.94884 0.15958
62.70303 97.52128 8.48345 0.30957
63.02687 90.00000 8.91336 0.32424
62.70303 82.47872 8.88410 0.27620
16.46989 -80.28877 1.47468 0.12840
15.86376 -60.00172 3.66969 0.16151
16.46989 -39.71467 9.87430 0.28362
62.70303 127.51955 4.99860 0.23885
63.02687 119.99828 5.95796 0.26050
62.70303 112.47700 7.58544 0.24607
16.46989 -50.28792 5.49352 0.23324
15.86376 -30.00087 10.93619 0.27849
16.46989 -9.71382 14.80956 0.35372
62.70303 157.52041 2.27961 0.15892
63.02687 149.99913 2.31651 0.17240
62.70303 142.47785 3.46002 0.15924
16.46989 -20.29093 13.71649 0.36399
15.86376 -0.00388 13.67116 0.32688
16.46989 20.28318 12.04907 0.30240
62.70303 -172.48260 2.54575 0.16888
63.02687 179.99612 2.92285 0.17639
62.70303 172.47485 2.45382 0.13888
16.46989 9.70864 12.41738 0.34825
15.86376 29.99569 8.62113 0.24924
16.46989 50.28274 4.01573 0.18314
62.70303 -142.48304 4.30583 0.21931
63.02687 -150.00431 3.67399 0.21197
62.70303 -157.52559 2.69888 0.14334
16.46989 39.71077 7.53523 0.26494
15.86376 59.99782 2.45225 0.13745
16.46989 80.28488 1.18969 0.10024
62.70303 -112.48090 8.82311 0.31072
63.02687 -120.00218 7.48569 0.29143
62.70303 -127.52345 5.74748 0.21761
16.46989 69.70905 1.66526 0.13190
15.86376 89.99610 1.01931 0.09536
16.46989 110.28316 2.54150 0.14763
62.70303 -82.48262 9.08122 0.31636
63.02687 -90.00390 9.72426 0.33755
62.70303 -97.52517 10.34232 0.28103
16.46989 99.70990 1.08119 0.10786
15.86376 119.99695 3.14433 0.14954
16.46989 140.28401 8.39361 0.25453
62.70303 -52.48177 5.96615 0.26905
63.02687 -60.00305 7.52338 0.29373
62.70303 -67.52432 8.98302 0.26170
16.46989 129.71204 4.72860 0.21371
15.86376 149.99909 9.18177 0.26787
16.46989 170.28614 13.00817 0.32967
62.70303 -22.47963 2.88816 0.18527
63.02687 -30.00091 3.43665 0.19771
62.70303 -37.52219 4.44128 0.19113
16.46989 159.71160 11.59839 0.32241
15.86376 179.99865 12.19721 0.29966
16.46989 -159.71429 11.56590 0.29941
62.70303 7.51993 2.83527 0.17831
63.02687 -0.00135 3.38017 0.20392
62.70303 -7.52262 3.35017 0.15656
16.46989 -170.29012 12.33386 0.34346
15.86376 -150.00307 8.31368 0.24136
16.46989 -129.71601 4.41226 0.18200
62.70303 37.51821 3.54035 0.19631
63.02687 29.99693 2.97116 0.17533
62.70303 22.47566 2.74599 0.15435
16.46989 -140.28927 7.51474 0.25897
15.86376 -120.00222 2.66654 0.15153
16.46989 -99.71516 1.39563 0.11222
62.70303 67.51906 7.87447 0.28673
63.02687 59.99778 5.93148 0.26277
62.70303 52.47651 5.50727 0.21079
20.35407 -136.58209 9.62247 0.30530
19.94675 -120.00222 4.35463 0.18111
20.35407 -103.42234 2.37442 0.14100
57.08758 67.79872 6.65444 0.26198
57.34405 59.99778 5.12234 0.24403
57.08758 52.19684 5.17313 0.20665
20.35407 -166.58166 17.66940 0.42639
19.94675 -150.00178 13.24621 0.32120
20.35407 -133.42191 7.10582 0.23227
57.08758 37.79916 3.09383 0.18620
57.34405 29.99822 1.53514 0.14184
57.08758 22.19728 1.03093 0.09167
20.35407 163.42007 18.68386 0.44179
19.94675 179.99994 18.76604 0.42194
20.35407 -163.42019 17.90961 0.40906
57.08758 7.80088 1.06595 0.11838
57.34405 -0.00006 0.78628 0.10029
57.08758 -7.80100 0.89966 0.09206
20.35407 133.42050 8.79355 0.28287
19.94675 150.00038 14.84419 0.32694
20.35407 166.58025 19.49325 0.43305
57.08758 -22.19869 1.14526 0.12236
57.34405 -29.99962 1.67394 0.14499
57.08758 -37.80056 2.82651 0.15236
20.35407 103.41965 1.74995 0.13690
19.94675 119.99952 4.90857 0.19208
20.35407 136.57940 12.16760 0.32292
57.08758 -52.19954 5.32437 0.24394
57.34405 -60.00048 6.73083 0.28667
57.08758 -67.80141 7.94182 0.25212
20.35407 73.42137 2.47767 0.16348
19.94675 90.00125 1.60750 0.11038
20.35407 106.58112 3.05125 0.15498
57.08758 -82.19782 8.35962 0.29321
57.34405 -89.99875 9.60909 0.33110
57.08758 -97.79969 9.00666 0.26917
20.35407 43.42181 10.02763 0.30518
19.94675 60.00168 3.68445 0.16507
20.35407 76.58156 1.86664 0.12813
57.08758 -112.19738 7.59090 0.28486
57.34405 -119.99832 5.82631 0.25400
57.08758 -127.79926 5.64232 0.21366
20.35407 13.42096 18.54583 0.43615
19.94675 30.00083 13.58340 0.32384
20.35407 46.58071 7.71615 0.24142
57.08758 -142.19823 3.21924 0.19114
57.34405 -149.99917 1.65622 0.14558
57.08758 -157.80011 1.28243 0.10256
20.35407 -16.57861 19.71574 0.44858
19.94675 0.00127 19.79335 0.42586
20.35407 16.58114 18.92751 0.41098
57.08758 -172.19780 0.79558 0.10257
57.34405 -179.99873 0.71606 0.09702
57.08758 172.20033 0.78597 0.08380
20.35407 -46.57817 9.01754 0.30489
19.94675 -29.99830 15.83129 0.36597
20.35407 -13.41842 19.86175 0.43280
57.08758 157.80264 0.74423 0.10030
57.34405 150.00170 1.23265 0.11907
57.08758 142.20076 2.41766 0.13427
20.35407 -76.57902 2.38593 0.15246
19.94675 -59.99915 5.89095 0.20570
20.35407 -43.41927 11.69031 0.31215
57.08758 127.80179 4.48243 0.22244
57.34405 120.00085 5.61812 0.24510
57.08758 112.19991 6.91806 0.23351
20.35407 -106.57987 3.06748 0.17108
19.94675 -90.00000 2.12254 0.13085
20.35407 -73.42013 4.14269 0.17864
57.08758 97.80094 7.76783 0.30250
57.34405 90.00000 9.11461 0.33341
57.08758 82.19906 8.34847 0.25178
24.37601 -104.08165 3.46882 0.18592
24.10869 -90.00000 3.07450 0.15082
24.37601 -75.91835 4.36622 0.19196
51.77717 98.16569 7.35327 0.28499
51.96990 90.00000 8.56363 0.31680
51.77717 81.83431 8.32935 0.25333
24.37601 -74.08466 3.93462 0.19133
24.10869 -60.00301 7.06755 0.23161
24.37601 -45.92135 13.52960 0.34272
51.77717 128.16269 5.46744 0.24213
51.96990 119.99699 5.73183 0.26746
51.77717 111.83130 6.34299 0.22596
24.37601 -44.08252 12.18146 0.34810
24.10869 -30.00087 19.22102 0.39925
24.37601 -15.91922 23.70134 0.46544
51.77717 158.16482 0.45729 0.08863
51.96990 149.99913 1.12803 0.12505
51.77717 141.83344 2.85900 0.15361
24.37601 -14.08553 24.45071 0.52667
24.10869 -0.00388 22.44377 0.44431
24.37601 14.07778 23.42566 0.44965
51.77717 -171.83818 0.43391 0.08285
51.96990 179.99612 0.30244 0.07232
51.77717 171.83043 0.31567 0.06230
24.37601 15.91403 22.79935 0.47587
24.10869 29.99569 17.09755 0.38302
24.37601 44.07734 9.79587 0.27923
51.77717 -141.83862 3.74321 0.20104
51.96990 -150.00431 1.75163 0.14788
51.77717 -158.17000 0.79625 0.08951
24.37601 45.91617 11.24127 0.33342
24.10869 59.99782 5.60396 0.20779
24.37601 74.07948 3.06806 0.14803
51.77717 -111.83648 6.60362 0.26383
51.96990 -120.00218 5.60209 0.24321
51.77717 -128.16787 5.71277 0.21286
24.37601 75.91445 2.98218 0.17302
24.10869 89.99610 2.28568 0.13616
24.37601 104.07776 3.91885 0.18003
51.77717 -81.83820 7.47753 0.28162
51.96990 -90.00390 9.07539 0.32644
51.77717 -98.16959 8.80921 0.25678
24.37601 105.91530 3.10267 0.18074
24.10869 119.99695 6.52045 0.21750
24.37601 134.07861 13.16410 0.32950
51.77717 -51.83735 5.30361 0.24150
51.96990 -60.00305 5.89220 0.25942
51.77717 -68.16874 7.09392 0.23439
24.37601 135.91744 12.29776 0.34511
24.10869 149.99909 18.11295 0.40024
24.37601 164.08074 22.90677 0.46927
51.77717 -21.83522 0.59650 0.09306
51.96990 -30.00091 1.31960 0.13140
51.77717 -38.16660 2.82521 0.15051
24.37601 165.91700 22.79666 0.48889
24.10869 179.99865 22.39932 0.45551
24.37601 -165.91969 21.65945 0.45155
51.77717 8.16435 0.33100 0.07438
51.96990 -0.00135 0.36403 0.07742
51.77717 -8.16704 0.29683 0.06097
24.37601 -164.08472 22.48435 0.48179
24.10869 -150.00307 15.66600 0.36757
24.37601 -135.92141 9.72049 0.28709
51.77717 38.16263 2.84416 0.17806
51.96990 29.99693 1.53489 0.13628
51.77717 21.83124 0.81623 0.08643
24.37601 -134.08258 10.41049 0.33105
24.10869 -120.00093 5.99933 0.22022
24.37601 -105.91928 3.25870 0.15217
51.77717 68.16476 5.84604 0.25862
51.96990 59.99907 5.11647 0.24116
51.77717 51.83338 5.42260 0.20759
28.52653 -132.30824 10.87384 0.34502
28.36567 -120.00093 7.01777 0.24362
28.52653 -107.69362 5.02673 0.19578
46.73358 68.63253 6.23786 0.25998
46.86401 59.99907 6.12249 0.26628
46.73358 51.36561 6.84672 0.24142
28.52653 -162.30781 23.12411 0.47269
28.36567 -150.00050 17.13442 0.38916
28.52653 -137.69318 11.06228 0.30874
46.73358 38.63297 4.89717 0.23849
46.86401 29.99950 2.42250 0.17041
46.73358 21.36604 1.00016 0.09702
28.52653 167.69263 23.67988 0.48626
28.36567 179.99994 22.59158 0.44604
28.52653 -167.69275 23.52411 0.43655
46.73358 8.63340 0.52957 0.09022
46.86401 -0.00006 0.40628 0.08400
46.73358 -8.63352 0.59300 0.07995
28.52653 137.69306 13.61896 0.36757
28.36567 150.00038 20.36233 0.41757
28.52653 162.30769 23.61225 0.45217
46.73358 -21.36616 0.75271 0.10842
46.86401 -29.99962 2.04089 0.15813
46.73358 -38.63309 4.45959 0.19121
28.52653 107.69221 4.42788 0.21117
28.36567 119.99952 7.27619 0.24177
28.52653 132.30684 13.34164 0.33898
46.73358 -51.36701 6.99705 0.27814
46.86401 -60.00048 6.83732 0.28382
46.73358 -68.63394 7.38000 0.25026
28.52653 77.69908 3.91709 0.20183
28.36567 90.00639 3.48834 0.15319
28.52653 102.31370 4.58523 0.20430
46.73358 -81.36015 7.91668 0.30359
46.86401 -89.99361 9.53482 0.33663
46.73358 -98.62707 8.73335 0.26176
28.52653 47.69180 11.04222 0.33625
28.36567 59.99911 6.59220 0.23035
28.52653 72.30642 4.10214 0.19045
46.73358 -111.36743 6.78362 0.26916
46.86401 -120.00089 5.80466 0.27996
46.73358 -128.63435 6.85063 0.22893
28.52653 17.69223 23.77998 0.48746
28.36567 29.99954 18.10889 0.38287
28.52653 42.30686 11.73499 0.32477
46.73358 -141.36699 5.23204 0.22755
46.86401 -150.00046 2.51167 0.17718
46.73358 -158.63392 1.12598 0.10770
28.52653 -12.30347 24.79647 0.48240
28.36567 0.00384 22.83053 0.42756
28.52653 12.31115 24.01314 0.44272
46.73358 -171.36270 0.57872 0.09444
46.86401 -179.99616 0.46481 0.08914
46.73358 171.37037 0.59177 0.07936
28.52653 -42.30561 13.35455 0.37524
28.36567 -29.99830 19.95302 0.39489
28.52653 -17.69099 23.90468 0.43859
46.73358 158.63516 0.89958 0.11034
46.86401 150.00170 2.06592 0.15611
46.73358 141.36824 4.34608 0.19067
28.52653 -72.30518 5.25574 0.22253
28.36567 -59.99786 7.80259 0.24829
28.52653 -47.69055 13.18581 0.32595
46.73358 128.63560 7.32600 0.28690
46.86401 120.00214 6.76632 0.29072
46.73358 111.36867 6.66592 0.23320
28.52653 -102.29960 4.56591 0.21501
28.36567 -89.99229 3.77862 0.16588
28.52653 -77.68497 5.36142 0.21468
46.73358 98.64118 6.97703 0.27655
46.86401 90.00771 8.99551 0.31812
46.73358 81.37425 8.59775 0.25808
32.82102 -100.98828 5.89449 0.24398
32.74665 -89.99229 5.47515 0.20385
32.82102 -78.99629 6.74525 0.23385
41.91203 99.23929 7.45539 0.27486
41.97916 90.00771 7.83546 0.30357
41.91203 80.77613 7.58133 0.24137
32.82102 -70.99900 7.10436 0.27053
32.74665 -60.00301 8.68894 0.26067
32.82102 -49.00702 12.36662 0.31975
41.91203 129.22857 8.66418 0.31746
41.97916 119.99699 7.27994 0.30572
41.91203 110.76541 7.50462 0.24360
32.82102 -40.99943 13.79486 0.36005
32.74665 -30.00344 17.03635 0.35541
32.82102 -19.00745 18.25735 0.36909
41.91203 159.22814 2.96692 0.18751
41.97916 149.99656 4.83957 0.23678
41.91203 140.76498 7.80518 0.25682
32.82102 -10.99730 17.84421 0.39947
32.74665 -0.00131 17.43953 0.34480
32.82102 10.99469 19.32336 0.37574
41.91203 -170.76973 2.03388 0.15862
41.97916 179.99869 1.60808 0.14087
41.91203 170.76711 2.12901 0.13286
32.82102 18.99841 18.78999 0.42412
32.74665 29.99440 17.32650 0.35505
32.82102 40.99039 12.24416 0.30324
41.91203 -140.77402 7.38268 0.28147
41.97916 -150.00560 4.65570 0.24455
41.91203 -159.23718 3.08593 0.16576
32.82102 49.00183 10.50466 0.33744
32.74665 59.99782 7.77845 0.25510
32.82102 70.99381 5.83800 0.21564
41.91203 -110.77060 7.22710 0.30054
41.97916 -120.00218 6.88754 0.29733
41.91203 -129.23376 7.85168 0.25260
32.82102 79.00140 5.40411 0.23115
32.74665 89.99739 4.99217 0.18711
32.82102 100.99338 6.00365 0.22105
41.91203 -80.77103 7.97935 0.30838
41.97916 -90.00261 9.19946 0.31920
41.91203 -99.23419 8.49465 0.25401
32.82102 109.00096 5.70722 0.24626
32.74665 119.99695 7.77761 0.24749
32.82102 130.99294 12.22287 0.32370
41.91203 -50.77147 8.16224 0.31492
41.97916 -60.00305 8.05447 0.31584
41.91203 -69.23463 7.75310 0.25109
32.82102 139.00181 14.40158 0.36821
32.74665 149.99780 17.94932 0.36485
32.82102 160.99379 19.21487 0.38941
41.91203 -20.77062 2.51838 0.17571
41.97916 -30.00220 3.76307 0.21099
41.91203 -39.23378 7.00795 0.23492
32.82102 169.00266 19.00417 0.41024
32.74665 179.99865 17.34827 0.32442
32.82102 -169.00535 18.34066 0.37602
41.91203 9.23023 1.79011 0.14691
41.97916 -0.00135 1.44708 0.13692
41.91203 -9.23293 1.70373 0.12649
32.82102 -160.99906 19.55423 0.43823
32.74665 -150.00307 15.20188 0.34667
32.82102 -139.00708 12.01503 0.32858
41.91203 39.22851 7.24539 0.28998
41.97916 29.99693 4.86629 0.24446
41.91203 20.76535 3.24932 0.15980
32.82102 -130.99821 11.16768 0.34016
32.74665 -120.00222 7.76122 0.25554
32.82102 -109.00623 6.51316 0.24141
41.91203 69.22936 6.85836 0.27561
41.97916 59.99778 6.68810 0.27781
41.91203 50.76620 8.12172 0.25405
37.27288 -130.00345 10.29418 0.32344
37.27278 -120.00222 7.97200 0.26192
37.27288 -110.00098 7.61943 0.23749
37.28556 69.99659 6.84608 0.28120
37.28566 59.99778 7.37485 0.30389
37.28556 49.99898 9.70923 0.28810
37.27288 -160.00173 10.66818 0.31343
37.27278 -150.00050 11.38873 0.28403
37.27288 -139.99926 10.88004 0.29500
37.28556 39.99831 9.78418 0.34022
37.28566 29.99950 10.31905 0.34968
37.28556 20.00070 8.59639 0.26019
37.27288 169.99871 9.36771 0.27992
37.27278 179.99994 7.98308 0.23295
37.27288 -169.99883 9.68525 0.26447
37.28556 9.99874 6.59400 0.28363
37.28566 -0.00006 4.85060 0.22582
37.28556 -9.99886 6.36771 0.22422
37.27288 139.99914 11.95596 0.33290
37.27278 150.00038 11.53748 0.28246
37.27288 160.00161 9.95739 0.27331
37.28556 -20.00082 6.96970 0.28933
37.28566 -29.99962 8.47048 0.30462
37.28556 -39.99843 10.46798 0.28757
37.27288 109.99958 7.30393 0.28028
37.27278 120.00081 8.03955 0.24605
37.27288 130.00204 10.64492 0.29152
37.28556 -50.00039 10.20359 0.33721
37.28566 -59.99919 8.57937 0.31420
37.28556 -69.99799 8.63053 0.27939
37.27288 79.99873 6.36386 0.25243
37.27278 89.99996 6.17913 0.20966
37.27288 100.00119 6.77591 0.23459
37.28556 -80.00124 8.04680 0.29327
37.28566 -90.00004 8.26835 0.31202
37.28556 -99.99884 8.14763 0.25816
37.27288 50.00816 10.00970 0.30831
37.27278 60.00940 7.65149 0.24717
37.27288 70.01063 7.12811 0.24324
37.28556 -109.99180 7.09706 0.29188
37.28566 -119.99060 7.98697 0.32105
37.28556 -129.98941 8.84541 0.27180
37.27288 19.99960 11.21338 0.33221
37.27278 30.00083 11.84258 0.29618
37.27288 40.00206 11.31669 0.29763
37.28556 -140.00037 9.55159 0.31404
37.28566 -149.99917 10.17914 0.35839
37.28556 -159.99797 8.47205 0.25356
37.27288 -9.99997 8.29053 0.28307
37.27278 0.00127 7.08503 0.21507
37.27288 10.00250 9.14640 0.26469
37.28556 -169.99993 7.32918 0.29132
37.28566 -179.99873 5.82702 0.24627
37.28556 170.00246 7.26120 0.23324
37.27288 -39.99953 11.04122 0.32218
37.27278 -29.99830 9.98609 0.26420
37.27288 -19.99707 9.03177 0.26663
37.28556 160.00050 7.95325 0.30148
37.28566 150.00170 10.00834 0.34568
37.28556 140.00290 11.57620 0.30219
37.27288 -70.00167 7.45738 0.28544
37.27278 -60.00044 7.85887 0.24043
37.27288 -49.99920 10.49741 0.29737
37.28556 129.99837 10.79858 0.35689
37.28566 119.99956 8.35967 0.33726
37.28556 110.00076 7.86104 0.26947
37.27288 -99.99995 7.39757 0.27671
37.27278 -89.99871 7.44971 0.23509
37.27288 -79.99748 7.53683 0.24542
37.28556 100.00009 7.19921 0.28372
37.28566 90.00129 6.74756 0.28528
37.28556 80.00248 7.56400 0.25507
