VULCAN
alpha beta intensity
Single peak fit using lmfit routine (P-V profile) at 2022-07-30 19:21:49.170374
5.55713 176.45997 0.74181 0.06712
0.00000 90.00000 0.91496 0.06578
5.55713 3.54003 0.64379 0.05605
89.31892 97.05324 1.48167 0.09696
90.00000 -90.00000 1.73838 0.10809
89.31892 82.94676 2.00560 0.09701
5.55713 -153.54175 0.75007 0.06948
0.00000 119.99828 0.95248 0.07330
5.55713 33.53831 0.66451 0.06071
89.31892 127.05152 3.67005 0.14521
90.00000 -60.00172 2.94998 0.13643
89.31892 112.94504 1.86269 0.09141
5.55713 -123.54090 0.67701 0.06588
0.00000 149.99913 0.92833 0.07000
5.55713 63.53916 0.70467 0.06127
89.31892 157.05237 6.95390 0.20427
90.00000 -30.00087 5.48582 0.18980
89.31892 142.94589 4.19844 0.13749
5.55713 -93.54134 0.79536 0.07152
0.00000 179.99869 0.96560 0.06766
5.55713 93.53873 0.95489 0.06750
89.31892 -172.94807 7.09926 0.20877
90.00000 -0.00131 7.11973 0.20675
89.31892 172.94546 7.51223 0.18007
5.55713 -63.54306 0.69996 0.06964
0.00000 -150.00303 0.93324 0.06745
5.55713 123.53700 0.84371 0.06714
89.31892 -142.94979 4.03171 0.15462
90.00000 29.99697 4.48808 0.16859
89.31892 -157.05627 6.03194 0.15988
5.55713 -33.54092 0.66024 0.06338
0.00000 -120.00089 1.07125 0.07294
5.55713 153.53914 0.66324 0.05774
89.31892 -112.94765 1.56646 0.10255
90.00000 59.99911 2.01486 0.11118
89.31892 -127.05413 3.44285 0.12445
5.55713 -3.54136 0.55174 0.05806
0.00000 -90.00133 0.96607 0.06813
5.55713 -176.46129 0.62475 0.05850
89.31892 -82.94809 1.91047 0.11163
90.00000 89.99867 2.23120 0.12090
89.31892 -97.05456 1.93544 0.09367
5.55713 26.45692 0.67721 0.06715
0.00000 -60.00305 1.05464 0.07171
5.55713 -146.46302 0.61695 0.05871
89.31892 -52.94981 4.60293 0.16692
90.00000 119.99695 3.29743 0.14127
89.31892 -67.05629 2.23415 0.10114
5.55713 56.45906 0.68010 0.06615
0.00000 -30.00091 0.95095 0.06752
5.55713 -116.46088 0.94617 0.07050
89.31892 -22.94767 7.10479 0.21864
90.00000 149.99909 5.15320 0.17932
89.31892 -37.05415 5.29708 0.14955
5.55713 86.45862 0.86056 0.07042
0.00000 -0.00135 1.06316 0.06907
5.55713 -86.46131 0.77136 0.06465
89.31892 7.05189 7.87980 0.22853
90.00000 179.99865 7.68029 0.22369
89.31892 -7.05458 8.40260 0.18639
5.55713 116.45690 0.75363 0.06707
0.00000 29.99693 1.01478 0.07065
5.55713 -56.46304 0.63681 0.05941
89.31892 37.05017 4.05159 0.15719
90.00000 -150.00307 4.93114 0.17315
89.31892 22.94369 6.44638 0.17558
5.55713 146.45904 0.67104 0.06386
0.00000 59.99907 0.99846 0.07277
5.55713 -26.46090 0.59240 0.05656
89.31892 67.05231 1.24114 0.09021
90.00000 -120.00093 2.01980 0.11227
89.31892 52.94583 3.22628 0.12169
6.60131 -177.30280 0.75317 0.06578
3.92476 -120.00093 0.88989 0.06671
6.60131 -62.69906 0.75580 0.06229
81.90616 67.08360 1.58368 0.10229
82.47848 59.99907 2.20514 0.11646
81.90616 52.91454 3.53823 0.12364
6.60131 152.69764 0.67474 0.06545
3.92476 -150.00050 0.71275 0.06151
6.60131 -92.69863 0.83081 0.06797
81.90616 37.08404 4.27021 0.15309
82.47848 29.99950 4.52374 0.16934
81.90616 22.91497 5.93652 0.16766
6.60131 122.69807 0.76553 0.06538
3.92476 179.99994 0.77769 0.05825
6.60131 -122.69819 0.77790 0.06352
81.90616 7.08447 6.34767 0.20090
82.47848 -0.00006 6.70338 0.21029
81.90616 -7.08459 6.80110 0.18006
6.60131 92.69851 0.73965 0.06907
3.92476 150.00038 0.92249 0.06869
6.60131 -152.69776 0.70738 0.05883
81.90616 -22.91509 6.63272 0.21641
82.47848 -29.99962 5.43724 0.19265
81.90616 -37.08416 4.79833 0.14985
6.60131 62.69766 0.69590 0.06526
3.92476 119.99952 0.90167 0.06807
6.60131 177.30139 0.73760 0.05866
81.90616 -52.91594 4.40667 0.16570
82.47848 -60.00048 3.20962 0.14707
81.90616 -67.08501 2.37575 0.10352
6.60131 32.69809 0.71505 0.06710
3.92476 89.99996 0.95251 0.07034
6.60131 147.30183 0.64726 0.05784
81.90616 -82.91551 1.76449 0.10933
82.47848 -90.00004 2.24486 0.12713
81.90616 -97.08457 2.04746 0.09888
6.60131 2.69724 0.59192 0.06094
3.92476 59.99911 0.94595 0.06748
6.60131 117.30098 0.68740 0.06162
81.90616 -112.91636 1.65127 0.09987
82.47848 -120.00089 2.08758 0.11785
81.90616 -127.08542 3.45115 0.12568
6.60131 -27.30232 0.61455 0.06201
3.92476 29.99954 0.82505 0.06362
6.60131 87.30141 0.78409 0.06546
81.90616 -142.91592 4.17090 0.15426
82.47848 -150.00046 4.72443 0.17135
81.90616 -157.08499 5.62604 0.16556
6.60131 -57.30189 0.74314 0.06712
3.92476 -0.00002 0.87318 0.06331
6.60131 57.30185 0.74791 0.06157
81.90616 -172.91549 6.00824 0.19627
82.47848 179.99998 6.15803 0.20119
81.90616 172.91545 6.04358 0.16423
6.60131 -87.30145 0.85249 0.07456
3.92476 -29.99958 0.73209 0.05957
6.60131 27.30228 0.65141 0.05802
81.90616 157.08495 5.45950 0.18567
82.47848 150.00042 4.81794 0.17989
81.90616 142.91588 4.67532 0.14245
6.60131 -117.30230 0.78028 0.07026
3.92476 -60.00044 0.92052 0.06976
6.60131 -2.69857 0.72382 0.05919
81.90616 127.08410 4.00669 0.14437
82.47848 119.99956 3.13060 0.13932
81.90616 112.91503 2.25042 0.09959
6.60131 -147.30187 0.64414 0.06407
3.92476 -90.00000 0.88892 0.06822
6.60131 -32.69813 0.64210 0.05661
81.90616 97.08453 1.62275 0.10445
82.47848 90.00000 1.90054 0.11333
81.90616 82.91547 1.87288 0.09463
9.34588 -126.69781 0.76892 0.06895
7.86923 -90.00000 0.87162 0.06559
9.34588 -53.30219 0.78861 0.06361
75.04809 97.17037 1.87398 0.10919
75.52700 90.00000 1.80210 0.10821
75.04809 82.82963 1.75309 0.09353
9.34588 -96.69953 0.79935 0.06936
7.86923 -60.00172 0.76428 0.06063
9.34588 -23.30391 0.93364 0.06767
75.04809 127.16864 4.03179 0.15609
75.52700 119.99828 3.34636 0.14213
75.04809 112.82791 2.64855 0.10737
9.34588 -66.69868 0.64946 0.06679
7.86923 -30.00087 0.72024 0.05841
9.34588 6.69694 0.84536 0.06552
75.04809 157.16950 3.67252 0.14595
75.52700 149.99913 3.76935 0.15505
75.04809 142.82876 4.15010 0.13522
9.34588 -36.69912 0.55852 0.05962
7.86923 -0.00131 0.78269 0.06081
9.34588 36.69651 0.72299 0.05996
75.04809 -172.83094 3.32905 0.13457
75.52700 179.99869 3.34831 0.14240
75.04809 172.82833 3.02229 0.11412
9.34588 -6.70212 0.83197 0.07051
7.86923 29.99569 0.72227 0.05712
9.34588 66.69350 0.75465 0.06257
75.04809 -142.83395 4.05636 0.15179
75.52700 -150.00431 4.17958 0.16394
75.04809 -157.17468 4.39081 0.14098
9.34588 23.30130 0.73504 0.06521
7.86923 59.99911 0.85807 0.06426
9.34588 96.69692 0.81036 0.06809
75.04809 -112.83052 1.94957 0.11172
75.52700 -120.00089 2.79384 0.13540
75.04809 -127.17126 3.72604 0.12588
9.34588 53.29700 0.65902 0.06369
7.86923 89.99482 0.89889 0.06758
9.34588 126.69263 0.60793 0.05760
75.04809 -82.83482 1.78711 0.10935
75.52700 -90.00518 1.90826 0.11308
75.04809 -97.17555 1.84684 0.09837
9.34588 83.29914 0.71256 0.06763
7.86923 119.99695 0.69705 0.05905
9.34588 156.69477 0.83112 0.06480
75.04809 -52.83268 4.30963 0.15984
75.52700 -60.00305 3.45983 0.14550
75.04809 -67.17341 2.64360 0.10769
9.34588 113.30128 0.64378 0.06639
7.86923 149.99909 0.69994 0.05732
9.34588 -173.30310 0.76858 0.06124
75.04809 -22.83054 4.40173 0.16877
75.52700 -30.00091 4.79133 0.17535
75.04809 -37.17128 4.67821 0.14190
9.34588 143.30084 0.68106 0.06309
7.86923 179.99865 0.76415 0.05805
9.34588 -143.30353 0.67050 0.06027
75.04809 7.16902 3.42019 0.14367
75.52700 -0.00135 3.87079 0.15500
75.04809 -7.17171 3.46948 0.12266
9.34588 173.29912 0.79633 0.07021
7.86923 -150.00307 0.78174 0.05842
9.34588 -113.30525 0.89081 0.06965
75.04809 37.16730 4.10388 0.15942
75.52700 29.99693 4.29006 0.15650
75.04809 22.82657 4.25401 0.13390
9.34588 -156.69874 0.76175 0.06650
7.86923 -120.00093 0.94366 0.06837
9.34588 -83.30312 0.99487 0.07382
75.04809 67.16944 2.03931 0.11169
75.52700 59.99907 2.58539 0.12241
75.04809 52.82870 3.77084 0.12411
12.76303 -146.20908 1.03640 0.08089
11.84553 -120.00093 0.96262 0.06799
12.76303 -93.79278 1.52560 0.08716
68.66734 67.31318 2.51106 0.12344
69.06442 59.99907 2.67514 0.13095
68.66734 52.68496 3.56438 0.12112
12.76303 -176.20864 1.57812 0.09157
11.84553 -150.00050 1.12351 0.06760
12.76303 -123.79235 1.16924 0.07630
68.66734 37.31362 3.97738 0.15106
69.06442 29.99950 3.59556 0.14638
68.66734 22.68539 2.75815 0.11150
12.76303 153.79179 1.26514 0.08242
11.84553 179.99994 1.27369 0.07132
12.76303 -153.79191 1.39696 0.08233
68.66734 7.31405 1.61791 0.09696
69.06442 -0.00006 1.61993 0.10341
68.66734 -7.31417 1.88134 0.09293
12.76303 123.79223 0.83802 0.06955
11.84553 150.00038 0.98256 0.06287
12.76303 176.20852 1.58863 0.08314
68.66734 -22.68551 2.97748 0.13593
69.06442 -29.99962 3.75883 0.15047
68.66734 -37.31374 4.56985 0.14389
12.76303 93.79138 0.93000 0.07920
11.84553 119.99952 0.83385 0.06034
12.76303 146.20767 1.21716 0.07410
68.66734 -52.68636 4.25420 0.16289
69.06442 -60.00048 3.69118 0.15214
68.66734 -67.31459 3.03541 0.11846
12.76303 63.79824 0.93955 0.07444
11.84553 90.00639 0.96370 0.06802
12.76303 116.21454 0.86970 0.06335
68.66734 -82.67950 1.78329 0.11110
69.06442 -89.99361 1.77231 0.10828
68.66734 -97.30772 1.82999 0.09522
12.76303 33.79353 1.10553 0.07797
11.84553 60.00168 0.76916 0.05983
12.76303 86.20983 1.09435 0.07722
68.66734 -112.68421 2.60893 0.12361
69.06442 -119.99832 2.96639 0.12889
68.66734 -127.31243 3.83346 0.12601
12.76303 3.79397 1.45059 0.09184
11.84553 30.00212 0.94759 0.06407
12.76303 56.21026 0.91887 0.06653
68.66734 -142.68377 3.75426 0.14009
69.06442 -149.99788 3.75717 0.14472
68.66734 -157.31200 3.02060 0.11181
12.76303 -26.20560 1.50952 0.08929
11.84553 0.00255 1.61292 0.08323
12.76303 26.21070 1.38842 0.07640
68.66734 -172.68334 1.67152 0.09692
69.06442 -179.99745 1.39464 0.09488
68.66734 172.68844 1.28944 0.07651
12.76303 -56.20645 1.01381 0.07834
11.84553 -29.99830 1.16312 0.07018
12.76303 -3.79015 1.86794 0.08933
68.66734 157.31581 2.20728 0.11911
69.06442 150.00170 3.01522 0.13381
68.66734 142.68759 4.22972 0.13213
12.76303 -86.20730 1.25952 0.08445
11.84553 -59.99915 0.94080 0.06457
12.76303 -33.79100 1.49610 0.07970
68.66734 127.31496 4.18330 0.15727
69.06442 120.00085 3.46627 0.13969
68.66734 112.68674 2.99479 0.11257
12.76303 -116.20815 0.94842 0.07310
11.84553 -90.00000 1.20474 0.07262
12.76303 -63.79185 1.19069 0.07380
68.66734 97.31411 1.95924 0.10566
69.06442 90.00000 1.72950 0.10569
68.66734 82.68589 1.89594 0.09557
16.46989 -110.28705 2.12887 0.10685
15.86376 -90.00000 1.99455 0.09113
16.46989 -69.71295 2.24986 0.10302
62.70303 97.52128 2.36089 0.12092
63.02687 90.00000 2.03524 0.11530
62.70303 82.47872 2.48861 0.10964
16.46989 -80.28877 1.83290 0.10202
15.86376 -60.00172 1.58312 0.08075
16.46989 -39.71467 2.70055 0.11166
62.70303 127.51955 3.74458 0.14886
63.02687 119.99828 3.50558 0.14477
62.70303 112.47700 3.32170 0.12050
16.46989 -50.28792 1.62527 0.09540
15.86376 -30.00087 2.85944 0.10789
16.46989 -9.71382 3.84858 0.13479
62.70303 157.52041 1.55251 0.09572
63.02687 149.99913 2.58371 0.12879
62.70303 142.47785 3.93372 0.12264
16.46989 -20.29093 3.24250 0.13100
15.86376 -0.00388 3.28294 0.12095
16.46989 20.28318 2.98298 0.11330
62.70303 -172.48260 0.96710 0.07899
63.02687 179.99612 0.57794 0.06262
62.70303 172.47485 0.63740 0.05726
16.46989 9.70864 3.36980 0.13392
15.86376 29.99569 2.29760 0.09803
16.46989 50.28274 1.45276 0.08440
62.70303 -142.48304 3.96249 0.15079
63.02687 -150.00431 3.48197 0.14784
62.70303 -157.52559 2.34474 0.09742
16.46989 39.71077 1.93540 0.10049
15.86376 59.99782 1.34352 0.07739
16.46989 80.28488 1.69530 0.08621
62.70303 -112.48090 2.97339 0.13265
63.02687 -120.00218 3.16823 0.13841
62.70303 -127.52345 3.81113 0.12974
16.46989 69.70905 1.38085 0.08756
15.86376 89.99610 1.48636 0.08353
16.46989 110.28316 1.53121 0.08594
62.70303 -82.48262 2.01534 0.11141
63.02687 -90.00390 1.85170 0.11054
62.70303 -97.52517 2.13076 0.09686
16.46989 99.70990 1.44510 0.08896
15.86376 119.99695 1.16468 0.07017
16.46989 140.28401 2.04098 0.09527
62.70303 -52.48177 4.29793 0.16493
63.02687 -60.00305 3.95096 0.15455
62.70303 -67.52432 3.61924 0.12327
16.46989 129.71204 1.53884 0.09168
15.86376 149.99909 2.13571 0.09864
16.46989 170.28614 3.45835 0.12733
62.70303 -22.47963 1.76109 0.10572
63.02687 -30.00091 2.82759 0.12919
62.70303 -37.52219 4.55115 0.14002
16.46989 159.71160 3.02166 0.12195
15.86376 179.99865 3.10683 0.11440
16.46989 -159.71429 2.72721 0.10971
62.70303 7.51993 0.87069 0.07618
63.02687 -0.00135 0.66702 0.07123
62.70303 -7.52262 0.88677 0.06316
16.46989 -170.29012 3.34995 0.13222
15.86376 -150.00307 1.97469 0.09017
16.46989 -129.71601 2.02342 0.09263
62.70303 37.51821 3.91044 0.14738
63.02687 29.99693 3.51408 0.13628
62.70303 22.47566 2.22879 0.10155
16.46989 -140.28927 2.12446 0.10277
15.86376 -120.00222 1.74720 0.09230
16.46989 -99.71516 2.39090 0.10461
62.70303 67.51906 3.01626 0.12997
63.02687 59.99778 3.17094 0.13962
62.70303 52.47651 3.66057 0.12570
20.35407 -136.58209 3.44665 0.13445
19.94675 -120.00222 3.21680 0.11547
20.35407 -103.42234 4.05413 0.13207
57.08758 67.79872 3.40065 0.13595
57.34405 59.99778 3.28566 0.14170
57.08758 52.19684 3.79275 0.12911
20.35407 -166.58166 5.59733 0.17578
19.94675 -150.00178 3.80445 0.12957
20.35407 -133.42191 3.17679 0.11595
57.08758 37.79916 3.97821 0.14961
57.34405 29.99822 3.18675 0.14043
57.08758 22.19728 1.94114 0.08802
20.35407 163.42007 5.35650 0.17319
19.94675 179.99994 5.96910 0.17757
20.35407 -163.42019 5.13897 0.16311
57.08758 7.80088 0.86008 0.07725
57.34405 -0.00006 0.49098 0.05981
57.08758 -7.80100 0.68809 0.06076
20.35407 133.42050 2.55209 0.11304
19.94675 150.00038 4.05291 0.12841
20.35407 166.58025 6.36185 0.18347
57.08758 -22.19869 1.66758 0.10263
57.34405 -29.99962 2.80354 0.13197
57.08758 -37.80056 4.22184 0.13322
20.35407 103.41965 2.44407 0.11489
19.94675 119.99952 2.37566 0.10045
20.35407 136.57940 3.58921 0.13089
57.08758 -52.19954 4.40612 0.15933
57.34405 -60.00048 4.24772 0.16438
57.08758 -67.80141 4.16011 0.13445
20.35407 73.42137 2.76035 0.12342
19.94675 90.00125 2.58515 0.10109
20.35407 106.58112 2.76207 0.10846
57.08758 -82.19782 3.01173 0.12948
57.34405 -89.99875 2.81224 0.13207
57.08758 -97.79969 3.43420 0.12344
20.35407 43.42181 3.37531 0.13075
19.94675 60.00168 2.56660 0.10265
20.35407 76.58156 3.00849 0.11677
57.08758 -112.19738 3.39271 0.13909
57.34405 -119.99832 3.65487 0.14547
57.08758 -127.79926 4.02850 0.13190
20.35407 13.42096 5.63365 0.17594
19.94675 30.00083 3.95694 0.13127
20.35407 46.58071 2.80966 0.10908
57.08758 -142.19823 3.98850 0.15126
57.34405 -149.99917 3.47366 0.14707
57.08758 -157.80011 2.17729 0.09440
20.35407 -16.57861 5.55150 0.17414
19.94675 0.00127 6.21695 0.17799
20.35407 16.58114 5.24067 0.16092
57.08758 -172.19780 0.83389 0.07604
57.34405 -179.99873 0.59746 0.06543
57.08758 172.20033 0.61459 0.05512
20.35407 -46.57817 3.16131 0.13284
19.94675 -29.99830 4.80166 0.15091
20.35407 -13.41842 6.81291 0.18785
57.08758 157.80264 1.35774 0.09151
57.34405 150.00170 2.71605 0.12213
57.08758 142.20076 3.99015 0.12285
20.35407 -76.57902 3.58566 0.13308
19.94675 -59.99915 3.04022 0.11053
20.35407 -43.41927 3.99148 0.13595
57.08758 127.80179 4.13258 0.15306
57.34405 120.00085 3.75049 0.14488
57.08758 112.19991 4.41833 0.13679
20.35407 -106.57987 3.56129 0.13193
19.94675 -90.00000 3.73238 0.12521
20.35407 -73.42013 3.70711 0.12375
57.08758 97.80094 3.57567 0.14940
57.34405 90.00000 3.37316 0.14823
57.08758 82.19906 3.39482 0.11899
24.37601 -104.08165 4.95258 0.15890
24.10869 -90.00000 4.79344 0.13708
24.37601 -75.91835 5.32509 0.15405
51.77717 98.16569 4.70604 0.16476
51.96990 90.00000 4.50898 0.16672
51.77717 81.83431 4.58246 0.13780
24.37601 -74.08466 4.93013 0.15370
24.10869 -60.00301 4.47131 0.13674
24.37601 -45.92135 5.37640 0.16018
51.77717 128.16269 4.13554 0.15144
51.96990 119.99699 4.26532 0.16639
51.77717 111.83130 4.94138 0.14508
24.37601 -44.08252 4.75687 0.15918
24.10869 -30.00087 5.65269 0.16174
24.37601 -15.91922 7.34504 0.19197
51.77717 158.16482 1.50952 0.10478
51.96990 149.99913 2.39813 0.12503
51.77717 141.83344 3.99924 0.12952
24.37601 -14.08553 7.24189 0.20948
24.10869 -0.00388 7.82962 0.19519
24.37601 14.07778 7.31426 0.18593
51.77717 -171.83818 0.90602 0.07914
51.96990 179.99612 0.60205 0.06485
51.77717 171.83043 0.83673 0.06450
24.37601 15.91403 7.17089 0.19499
24.10869 29.99569 5.45710 0.16169
24.37601 44.07734 4.51603 0.14049
51.77717 -141.83862 4.14196 0.15111
51.96990 -150.00431 3.07821 0.13679
51.77717 -158.17000 1.95891 0.09535
24.37601 45.91617 4.75704 0.15864
24.10869 59.99782 4.13926 0.13233
24.37601 74.07948 4.53097 0.12985
51.77717 -111.83648 4.45737 0.15611
51.96990 -120.00218 4.08845 0.15019
51.77717 -128.16787 4.23490 0.13384
24.37601 75.91445 4.36244 0.14969
24.10869 89.99610 4.15507 0.13287
24.37601 104.07776 4.53624 0.14106
51.77717 -81.83820 4.43852 0.15700
51.96990 -90.00390 4.05919 0.15907
51.77717 -98.16959 4.22326 0.13097
24.37601 105.91530 3.96613 0.14598
24.10869 119.99695 3.81970 0.12404
24.37601 134.07861 4.86582 0.14876
51.77717 -51.83735 4.53566 0.16013
51.96990 -60.00305 4.48349 0.16298
51.77717 -68.16874 4.62439 0.13862
24.37601 135.91744 4.23413 0.14865
24.10869 149.99909 5.87593 0.17014
24.37601 164.08074 7.40994 0.19780
51.77717 -21.83522 1.37146 0.09439
51.96990 -30.00091 2.68396 0.12897
51.77717 -38.16660 4.20457 0.13113
24.37601 165.91700 7.29433 0.20176
24.10869 179.99865 7.02722 0.18997
24.37601 -165.91969 6.54221 0.18395
51.77717 8.16435 0.81400 0.07308
51.96990 -0.00135 0.59088 0.06745
51.77717 -8.16704 0.88790 0.06643
24.37601 -164.08472 6.77266 0.19335
24.10869 -150.00307 5.45430 0.16183
24.37601 -135.92141 4.73164 0.14836
51.77717 38.16263 3.87878 0.14756
51.96990 29.99693 3.03021 0.13336
51.77717 21.83124 1.91179 0.09109
24.37601 -134.08258 5.15978 0.16993
24.10869 -120.00093 4.84761 0.14624
24.37601 -105.91928 5.49329 0.14221
51.77717 68.16476 4.59762 0.16504
51.96990 59.99907 4.24340 0.15788
51.77717 51.83338 4.24877 0.13388
28.52653 -132.30824 5.44232 0.17804
28.36567 -120.00093 5.90826 0.16490
28.52653 -107.69362 6.12615 0.15736
46.73358 68.63253 5.47027 0.17428
46.86401 59.99907 4.91418 0.17171
46.73358 51.36561 4.63489 0.14497
28.52653 -162.30781 6.19023 0.17931
28.36567 -150.00050 5.20891 0.16067
28.52653 -137.69318 5.52488 0.16127
46.73358 38.63297 4.11737 0.15691
46.86401 29.99950 2.98955 0.13441
46.73358 21.36604 1.88977 0.09169
28.52653 167.69263 6.90825 0.19199
28.36567 179.99994 6.14378 0.17376
28.52653 -167.69275 6.01973 0.16422
46.73358 8.63340 1.22611 0.09146
46.86401 -0.00006 0.87139 0.07951
46.73358 -8.63352 1.20533 0.07787
28.52653 137.69306 5.06318 0.16401
28.36567 150.00038 5.79057 0.16637
28.52653 162.30769 6.53634 0.17681
46.73358 -21.36616 1.71681 0.10890
46.86401 -29.99962 2.78201 0.12932
46.73358 -38.63309 3.89033 0.12969
28.52653 107.69221 5.29626 0.16589
28.36567 119.99952 4.79774 0.14582
28.52653 132.30684 5.11497 0.15571
46.73358 -51.36701 4.83592 0.16639
46.86401 -60.00048 5.49795 0.18294
46.73358 -68.63394 6.32795 0.16852
28.52653 77.69908 5.51636 0.17130
28.36567 90.00639 4.76041 0.13038
28.52653 102.31370 5.52809 0.16335
46.73358 -81.36015 5.36793 0.18000
46.86401 -89.99361 5.06354 0.17758
46.73358 -98.62707 5.47766 0.15171
28.52653 47.69180 4.96674 0.16454
28.36567 59.99911 5.16551 0.15088
28.52653 72.30642 5.44395 0.15918
46.73358 -111.36743 5.46369 0.17347
46.86401 -120.00089 5.21804 0.19032
46.73358 -128.63435 4.86444 0.14079
28.52653 17.69223 6.47727 0.18627
28.36567 29.99954 5.55482 0.15849
28.52653 42.30686 5.34850 0.16235
46.73358 -141.36699 4.32314 0.14853
46.86401 -150.00046 2.89583 0.13464
46.73358 -158.63392 2.03928 0.09904
28.52653 -12.30347 6.35418 0.17880
28.36567 0.00384 6.22285 0.16706
28.52653 12.31115 6.21068 0.16734
46.73358 -171.36270 1.22230 0.09122
46.86401 -179.99616 1.00873 0.08723
46.73358 171.37037 1.07376 0.07305
28.52653 -42.30561 5.34813 0.17351
28.36567 -29.99830 5.89577 0.16036
28.52653 -17.69099 5.91550 0.16233
46.73358 158.63516 1.54386 0.09912
46.86401 150.00170 2.61588 0.12480
46.73358 141.36824 3.60790 0.12635
28.52653 -72.30518 5.62187 0.16570
28.36567 -59.99786 5.26876 0.15113
28.52653 -47.69055 5.25171 0.15242
46.73358 128.63560 4.60410 0.16428
46.86401 120.00214 5.34314 0.18571
46.73358 111.36867 6.00290 0.16055
28.52653 -102.29960 5.58221 0.17061
28.36567 -89.99229 5.34375 0.14416
28.52653 -77.68497 5.85097 0.16365
46.73358 98.64118 5.14437 0.17098
46.86401 90.00771 4.78260 0.16764
46.73358 81.37425 5.27167 0.14784
32.82102 -100.98828 5.46097 0.16976
32.74665 -89.99229 4.95492 0.14298
32.82102 -78.99629 6.33926 0.16580
41.91203 99.23929 5.50932 0.16986
41.97916 90.00771 4.54860 0.16712
41.91203 80.77613 5.05630 0.14400
32.82102 -70.99900 5.86261 0.17775
32.74665 -60.00301 5.21311 0.14985
32.82102 -49.00702 5.08913 0.15229
41.91203 129.22857 4.12055 0.15902
41.97916 119.99699 5.08512 0.18379
41.91203 110.76541 6.34817 0.16293
32.82102 -40.99943 4.87939 0.15680
32.74665 -30.00344 4.26512 0.13392
32.82102 -19.00745 3.78689 0.12640
41.91203 159.22814 1.53193 0.09861
41.97916 149.99656 2.29549 0.11941
41.91203 140.76498 3.67716 0.12998
32.82102 -10.99730 3.93769 0.13892
32.74665 -0.00131 3.82594 0.12205
32.82102 10.99469 4.28777 0.13273
41.91203 -170.76973 1.36027 0.09536
41.97916 179.99869 1.14529 0.08687
41.91203 170.76711 1.25635 0.07677
32.82102 18.99841 4.21557 0.14841
32.74665 29.99440 4.79665 0.14017
32.82102 40.99039 5.22880 0.14695
41.91203 -140.77402 4.02364 0.15027
41.97916 -150.00560 2.84154 0.13847
41.91203 -159.23718 1.91250 0.09663
32.82102 49.00183 5.28700 0.17421
32.74665 59.99782 5.09031 0.15277
32.82102 70.99381 6.02733 0.16026
41.91203 -110.77060 5.75937 0.19277
41.97916 -120.00218 5.69052 0.19413
41.91203 -129.23376 4.86502 0.14546
32.82102 79.00140 5.63011 0.17013
32.74665 89.99739 5.06698 0.13882
32.82102 100.99338 5.90839 0.16042
41.91203 -80.77103 5.79658 0.18898
41.97916 -90.00261 4.86053 0.16811
41.91203 -99.23419 5.73997 0.15238
32.82102 109.00096 5.41752 0.17297
32.74665 119.99695 4.56062 0.14087
32.82102 130.99294 4.93676 0.15260
41.91203 -50.77147 4.76205 0.17386
41.97916 -60.00305 6.03949 0.19662
41.91203 -69.23463 6.53971 0.16747
32.82102 139.00181 5.10858 0.16064
32.74665 149.99780 4.45651 0.13678
32.82102 160.99379 4.28917 0.13792
41.91203 -20.77062 1.64641 0.10338
41.97916 -30.00220 2.44878 0.12345
41.91203 -39.23378 3.80056 0.12724
32.82102 169.00266 4.13341 0.14152
32.74665 179.99865 3.93070 0.11660
32.82102 -169.00535 4.18944 0.13479
41.91203 9.23023 1.34901 0.09147
41.97916 -0.00135 0.97338 0.08321
41.91203 -9.23293 1.40333 0.08419
32.82102 -160.99906 4.22241 0.15033
32.74665 -150.00307 4.83781 0.14640
32.82102 -139.00708 5.15173 0.15969
41.91203 39.22851 3.87635 0.15374
41.97916 29.99693 2.73204 0.13314
41.91203 20.76535 1.78805 0.08825
32.82102 -130.99821 5.03789 0.16682
32.74665 -120.00222 5.94610 0.16532
32.82102 -109.00623 6.24510 0.17290
41.91203 69.22936 5.66049 0.17971
41.97916 59.99778 5.30308 0.17766
41.91203 50.76620 4.41329 0.13719
37.27288 -130.00345 5.07481 0.16565
37.27278 -120.00222 6.57012 0.17551
37.27288 -110.00098 6.19783 0.15713
37.28556 69.99659 5.35242 0.17840
37.28566 59.99778 5.38612 0.18703
37.28556 49.99898 4.54392 0.14483
37.27288 -160.00173 2.65620 0.11683
37.27278 -150.00050 3.61242 0.12035
37.27288 -139.99926 4.61697 0.14267
37.28556 39.99831 3.94320 0.15712
37.28566 29.99950 3.34555 0.14581
37.28556 20.00070 2.43248 0.10396
37.27288 169.99871 2.16675 0.10081
37.27278 179.99994 2.06313 0.09049
37.27288 -169.99883 2.29378 0.09787
37.28556 9.99874 2.06950 0.11755
37.28566 -0.00006 1.70148 0.09947
37.28556 -9.99886 1.90119 0.09262
37.27288 139.99914 3.92579 0.14044
37.27278 150.00038 3.09874 0.11074
37.27288 160.00161 2.34545 0.10090
37.28556 -20.00082 2.00325 0.11485
37.28566 -29.99962 2.98140 0.13261
37.28556 -39.99843 4.15558 0.13363
37.27288 109.99958 5.63394 0.17848
37.27278 120.00081 4.84519 0.14176
37.27288 130.00204 4.28829 0.13766
37.28556 -50.00039 4.76198 0.16683
37.28566 -59.99919 5.81920 0.18640
37.28556 -69.99799 6.87300 0.18163
37.27288 79.99873 5.09350 0.16366
37.27278 89.99996 4.46748 0.13225
37.27288 100.00119 5.53421 0.15558
37.28556 -80.00124 5.70981 0.17798
37.28566 -90.00004 4.45921 0.16585
37.28556 -99.99884 5.73726 0.15816
37.27288 50.00816 4.66015 0.15390
37.27278 60.00940 5.61994 0.15648
37.27288 70.01063 5.72310 0.16002
37.28556 -109.99180 6.00308 0.19230
37.28566 -119.99060 5.88624 0.19810
37.28556 -129.98941 4.88902 0.14794
37.27288 19.99960 2.55174 0.11860
37.27278 30.00083 3.37775 0.11944
37.27288 40.00206 4.66001 0.14192
37.28556 -140.00037 4.26536 0.15221
37.28566 -149.99917 3.44692 0.15263
37.28556 -159.99797 2.50589 0.10369
37.27288 -9.99997 2.16889 0.10849
37.27278 0.00127 2.03403 0.08824
37.27288 10.00250 2.28413 0.10070
37.28556 -169.99993 2.01185 0.11405
37.28566 -179.99873 1.66535 0.09809
37.28556 170.00246 1.96344 0.09165
37.27288 -39.99953 3.95847 0.14173
37.27278 -29.99830 2.94066 0.10856
37.27288 -19.99707 2.31319 0.10223
37.28556 160.00050 2.15768 0.11684
37.28566 150.00170 2.63780 0.13086
37.28556 140.00290 3.98691 0.13121
37.27288 -70.00167 5.77934 0.18167
37.27278 -60.00044 5.02861 0.14271
37.27288 -49.99920 4.64745 0.14682
37.28556 129.99837 4.31669 0.16416
37.28566 119.99956 5.60683 0.19939
37.28556 110.00076 6.30582 0.17603
37.27288 -99.99995 5.03471 0.16555
37.27278 -89.99871 4.68723 0.13859
37.27288 -79.99748 5.68912 0.15648
37.28556 100.00009 5.72732 0.18156
37.28566 90.00129 4.42889 0.16723
37.28556 80.00248 5.38556 0.15717
