VULCAN
alpha beta intensity
Single peak fit using lmfit routine (P-V profile) at 2022-07-30 19:21:49.170374
5.55713 176.45997 1.25389 0.04129
0.00000 90.00000 1.69193 0.04519
5.55713 3.54003 1.12220 0.03630
89.31892 97.05324 1.20551 0.04263
90.00000 -90.00000 1.03532 0.04136
89.31892 82.94676 1.11620 0.03769
5.55713 -153.54175 1.29170 0.04349
0.00000 119.99828 1.58533 0.04794
5.55713 33.53831 1.27648 0.04079
89.31892 127.05152 1.67320 0.04882
90.00000 -60.00172 1.54494 0.04920
89.31892 112.94504 1.51539 0.04189
5.55713 -123.54090 1.41809 0.04489
0.00000 149.99913 1.53912 0.04579
5.55713 63.53916 1.58950 0.04426
89.31892 157.05237 1.62993 0.04992
90.00000 -30.00087 1.65857 0.05240
89.31892 142.94589 1.77401 0.04642
5.55713 -93.54134 1.52572 0.04724
0.00000 179.99869 1.58970 0.04418
5.55713 93.53873 1.57200 0.04309
89.31892 -172.94807 1.97441 0.05517
90.00000 -0.00131 2.00508 0.05523
89.31892 172.94546 1.96957 0.04841
5.55713 -63.54306 1.54037 0.04851
0.00000 -150.00303 1.49228 0.04318
5.55713 123.53700 1.34223 0.04178
89.31892 -142.94979 1.76855 0.05108
90.00000 29.99697 1.68188 0.05169
89.31892 -157.05627 1.68336 0.04433
5.55713 -33.54092 1.38361 0.04299
0.00000 -120.00089 1.69289 0.04657
5.55713 153.53914 1.17472 0.03759
89.31892 -112.94765 1.40382 0.04680
90.00000 59.99911 1.40272 0.04573
89.31892 -127.05413 1.63086 0.04452
5.55713 -3.54136 1.27936 0.04092
0.00000 -90.00133 1.66697 0.04533
5.55713 -176.46129 1.25860 0.03997
89.31892 -82.94809 1.29264 0.04521
90.00000 89.99867 1.09652 0.04259
89.31892 -97.05456 1.20224 0.03802
5.55713 26.45692 1.27756 0.04351
0.00000 -60.00305 1.55226 0.04440
5.55713 -146.46302 1.45446 0.04293
89.31892 -52.94981 1.87151 0.05312
90.00000 119.99695 1.76686 0.05136
89.31892 -67.05629 1.68245 0.04481
5.55713 56.45906 1.37950 0.04428
0.00000 -30.00091 1.51289 0.04353
5.55713 -116.46088 1.52567 0.04450
89.31892 -22.94767 1.73709 0.05446
90.00000 149.99909 1.85414 0.05379
89.31892 -37.05415 1.95468 0.04741
5.55713 86.45862 1.55041 0.04528
0.00000 -0.00135 1.62365 0.04362
5.55713 -86.46131 1.52429 0.04450
89.31892 7.05189 1.99512 0.05784
90.00000 179.99865 2.05274 0.05809
89.31892 -7.05458 2.06359 0.04846
5.55713 116.45690 1.48831 0.04443
0.00000 29.99693 1.45479 0.04331
5.55713 -56.46304 1.44429 0.04320
89.31892 37.05017 1.64693 0.05012
90.00000 -150.00307 1.76175 0.05174
89.31892 22.94369 1.77325 0.04835
5.55713 146.45904 1.33990 0.04225
0.00000 59.99907 1.65529 0.04756
5.55713 -26.46090 1.19532 0.03872
89.31892 67.05231 1.28931 0.04427
90.00000 -120.00093 1.42106 0.04648
89.31892 52.94583 1.56725 0.04397
6.60131 -177.30280 1.15032 0.03874
3.92476 -120.00093 1.55540 0.04436
6.60131 -62.69906 1.46518 0.04195
81.90616 67.08360 1.45601 0.04761
82.47848 59.99907 1.46267 0.04671
81.90616 52.91454 1.63687 0.04378
6.60131 152.69764 1.31710 0.04312
3.92476 -150.00050 1.50984 0.04392
6.60131 -92.69863 1.51490 0.04506
81.90616 37.08404 1.79107 0.04948
82.47848 29.99950 1.77888 0.05307
81.90616 22.91497 1.92277 0.04984
6.60131 122.69807 1.46270 0.04302
3.92476 179.99994 1.50818 0.04023
6.60131 -122.69819 1.52429 0.04393
81.90616 7.08447 1.94415 0.05571
82.47848 -0.00006 2.04546 0.05837
81.90616 -7.08459 2.09456 0.05227
6.60131 92.69851 1.53150 0.04675
3.92476 150.00038 1.48910 0.04392
6.60131 -152.69776 1.40127 0.04053
81.90616 -22.91509 1.75948 0.05608
82.47848 -29.99962 1.82946 0.05613
81.90616 -37.08416 2.00004 0.05019
6.60131 62.69766 1.36220 0.04289
3.92476 119.99952 1.52611 0.04492
6.60131 177.30139 1.16663 0.03669
81.90616 -52.91594 1.89786 0.05418
82.47848 -60.00048 1.73775 0.05387
81.90616 -67.08501 1.71506 0.04499
6.60131 32.69809 1.18646 0.04116
3.92476 89.99996 1.65966 0.04696
6.60131 147.30183 1.21419 0.03898
81.90616 -82.91551 1.39153 0.04733
82.47848 -90.00004 1.13707 0.04557
81.90616 -97.08457 1.28508 0.04027
6.60131 2.69724 1.12834 0.03885
3.92476 59.99911 1.50495 0.04320
6.60131 117.30098 1.43416 0.04312
81.90616 -112.91636 1.49477 0.04614
82.47848 -120.00089 1.55066 0.04984
81.90616 -127.08542 1.66615 0.04550
6.60131 -27.30232 1.28407 0.04214
3.92476 29.99954 1.49553 0.04286
6.60131 87.30141 1.53050 0.04469
81.90616 -142.91592 1.82193 0.05079
82.47848 -150.00046 1.80302 0.05289
81.90616 -157.08499 1.87348 0.04993
6.60131 -57.30189 1.58106 0.04602
3.92476 -0.00002 1.48291 0.04178
6.60131 57.30185 1.56624 0.04301
81.90616 -172.91549 1.84164 0.05449
82.47848 179.99998 1.87767 0.05579
81.90616 172.91545 1.83484 0.04748
6.60131 -87.30145 1.43850 0.04644
3.92476 -29.99958 1.41183 0.04090
6.60131 27.30228 1.27743 0.03950
81.90616 157.08495 1.72651 0.05237
82.47848 150.00042 1.68989 0.05338
81.90616 142.91588 1.77813 0.04583
6.60131 -117.30230 1.45995 0.04528
3.92476 -60.00044 1.58994 0.04652
6.60131 -2.69857 1.02875 0.03519
81.90616 127.08410 1.63468 0.04585
82.47848 119.99956 1.63282 0.05008
81.90616 112.91503 1.67200 0.04369
6.60131 -147.30187 1.26793 0.04232
3.92476 -90.00000 1.61667 0.04652
6.60131 -32.69813 1.20208 0.03792
81.90616 97.08453 1.37812 0.04659
82.47848 90.00000 1.18212 0.04442
81.90616 82.91547 1.32454 0.04080
9.34588 -126.69781 1.43075 0.04465
7.86923 -90.00000 1.61898 0.04500
9.34588 -53.30219 1.36540 0.04135
75.04809 97.17037 1.69330 0.05024
75.52700 90.00000 1.43907 0.04749
75.04809 82.82963 1.60817 0.04536
9.34588 -96.69953 1.58552 0.04597
7.86923 -60.00172 1.48542 0.04234
9.34588 -23.30391 1.06690 0.03671
75.04809 127.16864 1.59162 0.04912
75.52700 119.99828 1.75191 0.05114
75.04809 112.82791 1.80552 0.04532
9.34588 -66.69868 1.56412 0.04784
7.86923 -30.00087 1.21367 0.03772
9.34588 6.69694 1.09750 0.03731
75.04809 157.16950 1.66989 0.04897
75.52700 149.99913 1.63606 0.05100
75.04809 142.82876 1.61884 0.04413
9.34588 -36.69912 1.29765 0.04214
7.86923 -0.00131 1.13886 0.03714
9.34588 36.69651 1.37157 0.04012
75.04809 -172.83094 1.54859 0.04580
75.52700 179.99869 1.44000 0.04690
75.04809 172.82833 1.47987 0.04170
9.34588 -6.70212 0.99877 0.03810
7.86923 29.99569 1.27293 0.03778
9.34588 66.69350 1.60830 0.04432
75.04809 -142.83395 1.71492 0.04903
75.52700 -150.00431 1.67267 0.05193
75.04809 -157.17468 1.74040 0.04633
9.34588 23.30130 1.08097 0.03777
7.86923 59.99911 1.54092 0.04314
9.34588 96.69692 1.53191 0.04583
75.04809 -112.83052 1.63106 0.04983
75.52700 -120.00089 1.76547 0.05308
75.04809 -127.17126 1.73516 0.04464
9.34588 53.29700 1.33330 0.04299
7.86923 89.99482 1.62654 0.04573
9.34588 126.69263 1.28071 0.04044
75.04809 -82.83482 1.54352 0.04941
75.52700 -90.00518 1.34978 0.04694
75.04809 -97.17555 1.53995 0.04563
9.34588 83.29914 1.51950 0.04613
7.86923 119.99695 1.46734 0.04235
9.34588 156.69477 1.04589 0.03669
75.04809 -52.83268 1.91822 0.05287
75.52700 -60.00305 1.89038 0.05344
75.04809 -67.17341 1.87446 0.04654
9.34588 113.30128 1.47931 0.04659
7.86923 149.99909 1.19830 0.03757
9.34588 -173.30310 1.10445 0.03673
75.04809 -22.83054 1.73072 0.05282
75.52700 -30.00091 1.75796 0.05309
75.04809 -37.17128 1.85600 0.04656
9.34588 143.30084 1.37884 0.04224
7.86923 179.99865 1.21790 0.03699
9.34588 -143.30353 1.49331 0.04326
75.04809 7.16902 1.53031 0.04797
75.52700 -0.00135 1.57212 0.04968
75.04809 -7.17171 1.59331 0.04342
9.34588 173.29912 1.07850 0.03931
7.86923 -150.00307 1.38649 0.03887
9.34588 -113.30525 1.57876 0.04535
75.04809 37.16730 1.57433 0.04945
75.52700 29.99693 1.65374 0.04871
75.04809 22.82657 1.81252 0.04549
9.34588 -156.69874 1.19214 0.03957
7.86923 -120.00093 1.57805 0.04467
9.34588 -83.30312 1.64632 0.04741
75.04809 67.16944 1.54665 0.04770
75.52700 59.99907 1.62750 0.04805
75.04809 52.82870 1.72153 0.04366
12.76303 -146.20908 1.30167 0.04406
11.84553 -120.00093 1.64771 0.04498
12.76303 -93.79278 1.78787 0.04823
68.66734 67.31318 1.57782 0.04834
69.06442 59.99907 1.60518 0.05041
68.66734 52.68496 1.65313 0.04304
12.76303 -176.20864 1.08874 0.03852
11.84553 -150.00050 1.38896 0.03868
12.76303 -123.79235 1.58089 0.04451
68.66734 37.31362 1.53393 0.04716
69.06442 29.99950 1.56135 0.04818
68.66734 22.68539 1.75819 0.04587
12.76303 153.79179 1.24654 0.04059
11.84553 179.99994 1.15188 0.03581
12.76303 -153.79191 1.44154 0.04298
68.66734 7.31405 1.36603 0.04354
69.06442 -0.00006 1.21047 0.04429
68.66734 -7.31417 1.37429 0.04063
12.76303 123.79223 1.44576 0.04319
11.84553 150.00038 1.13982 0.03504
12.76303 176.20852 1.25045 0.03858
68.66734 -22.68551 1.65981 0.05026
69.06442 -29.99962 1.62598 0.04939
68.66734 -37.31374 1.71937 0.04615
12.76303 93.79138 1.59015 0.04965
11.84553 119.99952 1.40212 0.03941
12.76303 146.20767 1.17275 0.03760
68.66734 -52.68636 1.85115 0.05352
69.06442 -60.00048 1.93711 0.05461
68.66734 -67.31459 1.94178 0.04864
12.76303 63.79824 1.43663 0.04447
11.84553 90.00639 1.63546 0.04485
12.76303 116.21454 1.39569 0.03992
68.66734 -82.67950 1.88150 0.05505
69.06442 -89.99361 1.77069 0.05223
68.66734 -97.30772 1.84619 0.04814
12.76303 33.79353 1.26412 0.04110
11.84553 60.00168 1.52458 0.04200
12.76303 86.20983 1.69117 0.04820
68.66734 -112.68421 1.72505 0.04944
69.06442 -119.99832 1.78123 0.04953
68.66734 -127.31243 1.81008 0.04508
12.76303 3.79397 1.14737 0.04123
11.84553 30.00212 1.22887 0.03724
12.76303 56.21026 1.51086 0.04226
68.66734 -142.68377 1.52241 0.04471
69.06442 -149.99788 1.58196 0.04708
68.66734 -157.31200 1.77123 0.04419
12.76303 -26.20560 1.43711 0.04347
11.84553 0.00255 1.14923 0.03750
12.76303 26.21070 1.38677 0.03933
68.66734 -172.68334 1.40987 0.04315
69.06442 -179.99745 1.26493 0.04422
68.66734 172.68844 1.28943 0.03850
12.76303 -56.20645 1.54018 0.04639
11.84553 -29.99830 1.29400 0.03852
12.76303 -3.79015 1.25354 0.03844
68.66734 157.31581 1.54583 0.04891
69.06442 150.00170 1.50074 0.04704
68.66734 142.68759 1.55794 0.04209
12.76303 -86.20730 1.59701 0.04664
11.84553 -59.99915 1.46437 0.04115
12.76303 -33.79100 1.38480 0.03945
68.66734 127.31496 1.69747 0.05019
69.06442 120.00085 1.72752 0.04907
68.66734 112.68674 1.76908 0.04472
12.76303 -116.20815 1.68578 0.04686
11.84553 -90.00000 1.69331 0.04429
12.76303 -63.79185 1.58036 0.04331
68.66734 97.31411 1.69500 0.04796
69.06442 90.00000 1.67136 0.05031
68.66734 82.68589 1.77032 0.04637
16.46989 -110.28705 1.65219 0.04737
15.86376 -90.00000 1.71037 0.04475
16.46989 -69.71295 1.68276 0.04670
62.70303 97.52128 1.71664 0.05044
63.02687 90.00000 1.92765 0.05461
62.70303 82.47872 1.77347 0.04744
16.46989 -80.28877 1.66295 0.04877
15.86376 -60.00172 1.64786 0.04308
16.46989 -39.71467 1.71584 0.04682
62.70303 127.51955 1.54649 0.04798
63.02687 119.99828 1.64066 0.04965
62.70303 112.47700 1.73712 0.04506
16.46989 -50.28792 1.58263 0.04683
15.86376 -30.00087 1.60250 0.04337
16.46989 -9.71382 1.68583 0.04753
62.70303 157.52041 1.70022 0.04797
63.02687 149.99913 1.66118 0.05111
62.70303 142.47785 1.58657 0.04081
16.46989 -20.29093 1.71373 0.04868
15.86376 -0.00388 1.57064 0.04522
16.46989 20.28318 1.74247 0.04572
62.70303 -172.48260 1.49552 0.04600
63.02687 179.99612 1.25573 0.04191
62.70303 172.47485 1.53454 0.04140
16.46989 9.70864 1.60566 0.04744
15.86376 29.99569 1.57048 0.04320
16.46989 50.28274 1.58970 0.04515
62.70303 -142.48304 1.49212 0.04653
63.02687 -150.00431 1.50973 0.04895
62.70303 -157.52559 1.80613 0.04384
16.46989 39.71077 1.50157 0.04462
15.86376 59.99782 1.56989 0.04348
16.46989 80.28488 1.63618 0.04387
62.70303 -112.48090 1.76461 0.05037
63.02687 -120.00218 1.73669 0.05096
62.70303 -127.52345 1.64918 0.04472
16.46989 69.70905 1.60658 0.04672
15.86376 89.99610 1.66389 0.04610
16.46989 110.28316 1.58807 0.04494
62.70303 -82.48262 1.81273 0.05125
63.02687 -90.00390 1.87124 0.05378
62.70303 -97.52517 1.85955 0.04580
16.46989 99.70990 1.58933 0.04626
15.86376 119.99695 1.55620 0.04184
16.46989 140.28401 1.47634 0.04240
62.70303 -52.48177 1.76777 0.05295
63.02687 -60.00305 1.81731 0.05241
62.70303 -67.52432 1.98171 0.04708
16.46989 129.71204 1.56879 0.04586
15.86376 149.99909 1.49060 0.04385
16.46989 170.28614 1.53098 0.04518
62.70303 -22.47963 1.74688 0.05082
63.02687 -30.00091 1.68343 0.04939
62.70303 -37.52219 1.63132 0.04405
16.46989 159.71160 1.53340 0.04440
15.86376 179.99865 1.48332 0.04277
16.46989 -159.71429 1.73295 0.04601
62.70303 7.51993 1.51584 0.04643
63.02687 -0.00135 1.29789 0.04587
62.70303 -7.52262 1.46321 0.03948
16.46989 -170.29012 1.61017 0.04697
15.86376 -150.00307 1.67199 0.04375
16.46989 -129.71601 1.78339 0.04504
62.70303 37.51821 1.50998 0.04598
63.02687 29.99693 1.46343 0.04416
62.70303 22.47566 1.75551 0.04604
16.46989 -140.28927 1.72613 0.04651
15.86376 -120.00222 1.71402 0.04807
16.46989 -99.71516 1.74602 0.04685
62.70303 67.51906 1.48792 0.04539
63.02687 59.99778 1.63427 0.04984
62.70303 52.47651 1.57503 0.04315
20.35407 -136.58209 1.95534 0.05148
19.94675 -120.00222 1.77098 0.04602
20.35407 -103.42234 1.70960 0.04572
57.08758 67.79872 1.41667 0.04406
57.34405 59.99778 1.48934 0.04776
57.08758 52.19684 1.61037 0.04402
20.35407 -166.58166 1.77395 0.05099
19.94675 -150.00178 1.92390 0.04942
20.35407 -133.42191 1.81131 0.04604
57.08758 37.79916 1.50379 0.04632
57.34405 29.99822 1.67350 0.05072
57.08758 22.19728 1.99675 0.04485
20.35407 163.42007 1.76594 0.05138
19.94675 179.99994 1.67220 0.05137
20.35407 -163.42019 1.95255 0.05360
57.08758 7.80088 1.80260 0.05162
57.34405 -0.00006 1.60007 0.04765
57.08758 -7.80100 1.80429 0.04586
20.35407 133.42050 1.65965 0.04623
19.94675 150.00038 1.77934 0.04592
20.35407 166.58025 1.75504 0.05180
57.08758 -22.19869 1.90400 0.05249
57.34405 -29.99962 1.77151 0.05208
57.08758 -37.80056 1.67148 0.04400
20.35407 103.41965 1.52426 0.04617
19.94675 119.99952 1.59367 0.04386
20.35407 136.57940 1.76542 0.04876
57.08758 -52.19954 1.65251 0.04889
57.34405 -60.00048 1.74045 0.05276
57.08758 -67.80141 1.85434 0.04670
20.35407 73.42137 1.54153 0.04710
19.94675 90.00125 1.68484 0.04364
20.35407 106.58112 1.65960 0.04445
57.08758 -82.19782 1.82583 0.04957
57.34405 -89.99875 1.99079 0.05469
57.08758 -97.79969 1.94291 0.04796
20.35407 43.42181 1.87098 0.04947
19.94675 60.00168 1.59502 0.04340
20.35407 76.58156 1.67139 0.04613
57.08758 -112.19738 1.66022 0.04827
57.34405 -119.99832 1.62641 0.04859
57.08758 -127.79926 1.65139 0.04424
20.35407 13.42096 1.82391 0.05159
19.94675 30.00083 1.78848 0.04758
20.35407 46.58071 1.75621 0.04546
57.08758 -142.19823 1.58795 0.04805
57.34405 -149.99917 1.62606 0.05026
57.08758 -157.80011 1.91380 0.04499
20.35407 -16.57861 1.80119 0.05137
19.94675 0.00127 1.80879 0.05228
20.35407 16.58114 1.89780 0.05163
57.08758 -172.19780 1.82909 0.05104
57.34405 -179.99873 1.67967 0.04888
57.08758 172.20033 1.79056 0.04374
20.35407 -46.57817 1.82312 0.05142
19.94675 -29.99830 1.86651 0.05091
20.35407 -13.41842 1.86702 0.05276
57.08758 157.80264 1.90050 0.05136
57.34405 150.00170 1.62683 0.04693
57.08758 142.20076 1.64490 0.04121
20.35407 -76.57902 1.54179 0.04505
19.94675 -59.99915 1.68195 0.04424
20.35407 -43.41927 1.93613 0.05011
57.08758 127.80179 1.60949 0.04786
57.34405 120.00085 1.60869 0.04751
57.08758 112.19991 1.67041 0.04407
20.35407 -106.57987 1.58935 0.04536
19.94675 -90.00000 1.60479 0.04457
20.35407 -73.42013 1.63939 0.04407
57.08758 97.80094 1.67147 0.05108
57.34405 90.00000 1.92576 0.05541
57.08758 82.19906 1.84105 0.04532
24.37601 -104.08165 1.57993 0.04663
24.10869 -90.00000 1.63292 0.04372
24.37601 -75.91835 1.61572 0.04577
51.77717 98.16569 1.75153 0.05040
51.96990 90.00000 1.97517 0.05508
51.77717 81.83431 1.97419 0.04718
24.37601 -74.08466 1.63532 0.04586
24.10869 -60.00301 1.82133 0.04718
24.37601 -45.92135 1.98427 0.05188
51.77717 128.16269 1.71833 0.04880
51.96990 119.99699 1.70578 0.05278
51.77717 111.83130 1.76092 0.04547
24.37601 -44.08252 1.93622 0.05206
24.10869 -30.00087 1.95731 0.05155
24.37601 -15.91922 1.78143 0.05084
51.77717 158.16482 1.83725 0.05534
51.96990 149.99913 1.75962 0.05269
51.77717 141.83344 1.58719 0.04281
24.37601 -14.08553 1.86914 0.05499
24.10869 -0.00388 1.82563 0.05159
24.37601 14.07778 1.94634 0.05147
51.77717 -171.83818 1.87891 0.05188
51.96990 179.99612 1.69021 0.04841
51.77717 171.83043 1.77932 0.04465
24.37601 15.91403 1.78742 0.05037
24.10869 29.99569 1.93845 0.05216
24.37601 44.07734 1.87131 0.04817
51.77717 -141.83862 1.50468 0.04584
51.96990 -150.00431 1.62283 0.04947
51.77717 -158.17000 1.85653 0.04696
24.37601 45.91617 1.89877 0.05149
24.10869 59.99782 1.73969 0.04647
24.37601 74.07948 1.60468 0.04164
51.77717 -111.83648 1.60336 0.04700
51.96990 -120.00218 1.52905 0.04621
51.77717 -128.16787 1.76823 0.04517
24.37601 75.91445 1.48433 0.04531
24.10869 89.99610 1.57545 0.04456
24.37601 104.07776 1.62369 0.04528
51.77717 -81.83820 1.76481 0.04954
51.96990 -90.00390 1.94730 0.05485
51.77717 -98.16959 1.90761 0.04576
24.37601 105.91530 1.48457 0.04615
24.10869 119.99695 1.70121 0.04472
24.37601 134.07861 1.89530 0.04937
51.77717 -51.83735 1.74723 0.04971
51.96990 -60.00305 1.80561 0.05184
51.77717 -68.16874 1.77084 0.04493
24.37601 135.91744 1.80616 0.04974
24.10869 149.99909 1.87894 0.05218
24.37601 164.08074 1.75767 0.05185
51.77717 -21.83522 1.89926 0.05285
51.96990 -30.00091 1.64872 0.05023
51.77717 -38.16660 1.70041 0.04353
24.37601 165.91700 1.74803 0.05128
24.10869 179.99865 1.74999 0.05191
24.37601 -165.91969 1.94435 0.05370
51.77717 8.16435 1.83723 0.04970
51.96990 -0.00135 1.83944 0.05225
51.77717 -8.16704 1.90576 0.04661
24.37601 -164.08472 1.87187 0.05260
24.10869 -150.00307 2.08867 0.05410
24.37601 -135.92141 1.99664 0.05126
51.77717 38.16263 1.49925 0.04609
51.96990 29.99693 1.62397 0.04854
51.77717 21.83124 1.83942 0.04530
24.37601 -134.08258 1.96960 0.05389
24.10869 -120.00093 1.81000 0.04858
24.37601 -105.91928 1.74837 0.04313
51.77717 68.16476 1.52739 0.04787
51.96990 59.99907 1.65000 0.04935
51.77717 51.83338 1.78092 0.04528
28.52653 -132.30824 2.04259 0.05602
28.36567 -120.00093 1.88631 0.05064
28.52653 -107.69362 1.83330 0.04628
46.73358 68.63253 1.76169 0.04967
46.86401 59.99907 1.84139 0.05265
46.73358 51.36561 1.88177 0.04821
28.52653 -162.30781 1.87699 0.05090
28.36567 -150.00050 2.03714 0.05424
28.52653 -137.69318 1.91059 0.05069
46.73358 38.63297 1.74241 0.05099
46.86401 29.99950 1.66183 0.04984
46.73358 21.36604 1.77097 0.04475
28.52653 167.69263 1.61843 0.04829
28.36567 179.99994 1.60107 0.04857
28.52653 -167.69275 1.80024 0.04815
46.73358 8.63340 1.66923 0.05013
46.86401 -0.00006 1.67390 0.05103
46.73358 -8.63352 1.73759 0.04564
28.52653 137.69306 1.93013 0.05196
28.36567 150.00038 1.82473 0.05078
28.52653 162.30769 1.66128 0.04802
46.73358 -21.36616 1.83058 0.05414
46.86401 -29.99962 1.73493 0.05056
46.73358 -38.63309 1.76534 0.04549
28.52653 107.69221 1.58332 0.04697
28.36567 119.99952 1.75871 0.04782
28.52653 132.30684 1.88809 0.05046
46.73358 -51.36701 1.94552 0.05259
46.86401 -60.00048 1.97645 0.05490
46.73358 -68.63394 1.94369 0.04907
28.52653 77.69908 1.66436 0.04877
28.36567 90.00639 1.54088 0.04061
28.52653 102.31370 1.71338 0.04887
46.73358 -81.36015 1.96554 0.05457
46.86401 -89.99361 2.11984 0.05732
46.73358 -98.62707 1.98157 0.04772
28.52653 47.69180 1.92668 0.05264
28.36567 59.99911 1.69123 0.04701
28.52653 72.30642 1.63741 0.04697
46.73358 -111.36743 1.78439 0.04984
46.86401 -120.00089 1.91948 0.05792
46.73358 -128.63435 1.89950 0.04596
28.52653 17.69223 1.72381 0.04973
28.36567 29.99954 1.92841 0.05063
28.52653 42.30686 1.92497 0.05196
46.73358 -141.36699 1.72699 0.04703
46.86401 -150.00046 1.59574 0.04953
46.73358 -158.63392 1.75838 0.04664
28.52653 -12.30347 1.85069 0.04990
28.36567 0.00384 1.56149 0.04585
28.52653 12.31115 1.76387 0.04788
46.73358 -171.36270 1.74384 0.05146
46.86401 -179.99616 1.66534 0.05260
46.73358 171.37037 1.66806 0.04433
28.52653 -42.30561 1.88717 0.05293
28.36567 -29.99830 1.85494 0.04887
28.52653 -17.69099 1.69256 0.04668
46.73358 158.63516 1.73163 0.05004
46.86401 150.00170 1.75984 0.05056
46.73358 141.36824 1.66904 0.04478
28.52653 -72.30518 1.67540 0.04684
28.36567 -59.99786 1.87461 0.04882
28.52653 -47.69055 1.93524 0.04934
46.73358 128.63560 1.92427 0.05299
46.86401 120.00214 1.98077 0.05663
46.73358 111.36867 1.91781 0.04767
28.52653 -102.29960 1.69395 0.04877
28.36567 -89.99229 1.75522 0.04503
28.52653 -77.68497 1.83146 0.04916
46.73358 98.64118 1.88128 0.05176
46.86401 90.00771 1.93314 0.05335
46.73358 81.37425 1.93973 0.04699
32.82102 -100.98828 1.84223 0.05080
32.74665 -89.99229 1.86122 0.04756
32.82102 -78.99629 1.92059 0.04891
41.91203 99.23929 1.89166 0.04993
41.97916 90.00771 1.98195 0.05513
41.91203 80.77613 1.94088 0.04660
32.82102 -70.99900 1.93652 0.05279
32.74665 -60.00301 2.00592 0.05023
32.82102 -49.00702 1.98227 0.05053
41.91203 129.22857 1.82257 0.05265
41.97916 119.99699 2.08619 0.05875
41.91203 110.76541 2.11310 0.04910
32.82102 -40.99943 1.81429 0.04919
32.74665 -30.00344 1.85027 0.04753
32.82102 -19.00745 1.73346 0.04529
41.91203 159.22814 1.56739 0.04814
41.97916 149.99656 1.62490 0.04943
41.91203 140.76498 1.76424 0.04679
32.82102 -10.99730 1.57423 0.04528
32.74665 -0.00131 1.46602 0.04125
32.82102 10.99469 1.65807 0.04404
41.91203 -170.76973 1.50839 0.04805
41.97916 179.99869 1.36968 0.04565
41.91203 170.76711 1.46268 0.04104
32.82102 18.99841 1.75732 0.04914
32.74665 29.99440 1.89470 0.04758
32.82102 40.99039 2.01428 0.04850
41.91203 -140.77402 1.71506 0.04899
41.97916 -150.00560 1.68770 0.05300
41.91203 -159.23718 1.67010 0.04565
32.82102 49.00183 1.94513 0.05427
32.74665 59.99782 1.91844 0.05078
32.82102 70.99381 1.87282 0.04786
41.91203 -110.77060 1.92102 0.05576
41.97916 -120.00218 2.02945 0.05806
41.91203 -129.23376 2.02763 0.04890
32.82102 79.00140 1.80564 0.04978
32.74665 89.99739 1.74387 0.04439
32.82102 100.99338 1.77653 0.04717
41.91203 -80.77103 2.07257 0.05651
41.97916 -90.00261 2.10634 0.05519
41.91203 -99.23419 2.08342 0.04798
32.82102 109.00096 1.80470 0.05149
32.74665 119.99695 1.84032 0.04840
32.82102 130.99294 1.93003 0.05081
41.91203 -50.77147 1.91427 0.05511
41.97916 -60.00305 2.24579 0.05996
41.91203 -69.23463 2.16758 0.05050
32.82102 139.00181 1.80739 0.04910
32.74665 149.99780 1.82609 0.04717
32.82102 160.99379 1.65776 0.04566
41.91203 -20.77062 1.54708 0.04848
41.97916 -30.00220 1.72538 0.05089
41.91203 -39.23378 1.80715 0.04549
32.82102 169.00266 1.58355 0.04516
32.74665 179.99865 1.46027 0.03866
32.82102 -169.00535 1.77541 0.04658
41.91203 9.23023 1.49301 0.04628
41.97916 -0.00135 1.39651 0.04647
41.91203 -9.23293 1.60579 0.04522
32.82102 -160.99906 1.77612 0.05001
32.74665 -150.00307 1.89199 0.04950
32.82102 -139.00708 1.98141 0.05268
41.91203 39.22851 1.75031 0.05136
41.97916 29.99693 1.65853 0.05125
41.91203 20.76535 1.66441 0.04288
32.82102 -130.99821 2.16356 0.05590
32.74665 -120.00222 2.07433 0.05291
32.82102 -109.00623 1.99635 0.05237
41.91203 69.22936 1.86506 0.05169
41.97916 59.99778 1.92654 0.05350
41.91203 50.76620 1.99432 0.04789
37.27288 -130.00345 2.06135 0.05401
37.27278 -120.00222 2.24291 0.05550
37.27288 -110.00098 2.23218 0.05020
37.28556 69.99659 1.91716 0.05331
37.28566 59.99778 2.02988 0.05744
37.28556 49.99898 1.96265 0.04952
37.27288 -160.00173 1.62985 0.04624
37.27278 -150.00050 1.72821 0.04486
37.27288 -139.99926 1.90983 0.04876
37.28556 39.99831 1.76560 0.05242
37.28566 29.99950 1.77773 0.05285
37.28556 20.00070 1.65035 0.04385
37.27288 169.99871 1.32057 0.04006
37.27278 179.99994 1.23116 0.03752
37.27288 -169.99883 1.49297 0.04144
37.28556 9.99874 1.40067 0.04769
37.28566 -0.00006 1.33171 0.04306
37.28556 -9.99886 1.52521 0.04219
37.27288 139.99914 1.75529 0.04802
37.27278 150.00038 1.63408 0.04321
37.27288 160.00161 1.43217 0.04147
37.28556 -20.00082 1.52010 0.04906
37.28566 -29.99962 1.74314 0.05021
37.28556 -39.99843 1.88813 0.04683
37.27288 109.99958 1.92496 0.05358
37.27278 120.00081 1.92242 0.04820
37.27288 130.00204 1.80136 0.04734
37.28556 -50.00039 2.02533 0.05425
37.28566 -59.99919 2.19270 0.05717
37.28556 -69.99799 2.21281 0.05384
37.27288 79.99873 1.82514 0.05044
37.27278 89.99996 1.82550 0.04581
37.27288 100.00119 1.91670 0.04898
37.28556 -80.00124 1.98264 0.05260
37.28566 -90.00004 2.08621 0.05647
37.28556 -99.99884 2.11263 0.05013
37.27288 50.00816 2.01833 0.05175
37.27278 60.00940 2.02216 0.05079
37.27288 70.01063 1.99899 0.05051
37.28556 -109.99180 1.98123 0.05543
37.28566 -119.99060 2.18149 0.06027
37.28556 -129.98941 2.06783 0.04998
37.27288 19.99960 1.61531 0.04766
37.27278 30.00083 1.70601 0.04557
37.27288 40.00206 1.87253 0.04784
37.28556 -140.00037 1.83176 0.04974
37.28566 -149.99917 1.67904 0.05295
37.28556 -159.99797 1.71321 0.04387
37.27288 -9.99997 1.42581 0.04453
37.27278 0.00127 1.30997 0.03785
37.27288 10.00250 1.53931 0.04328
37.28556 -169.99993 1.46538 0.04759
37.28566 -179.99873 1.22440 0.04179
37.28556 170.00246 1.36727 0.03943
37.27288 -39.99953 1.68810 0.04753
37.27278 -29.99830 1.69628 0.04415
37.27288 -19.99707 1.57658 0.04426
37.28556 160.00050 1.42038 0.04662
37.28566 150.00170 1.64046 0.05104
37.28556 140.00290 1.85378 0.04641
37.27288 -70.00167 1.97990 0.05471
37.27278 -60.00044 1.96206 0.04813
37.27288 -49.99920 1.96561 0.05076
37.28556 129.99837 1.95615 0.05494
37.28566 119.99956 2.14018 0.06148
37.28556 110.00076 2.13682 0.05347
37.27288 -99.99995 1.94756 0.05299
37.27278 -89.99871 1.88771 0.04757
37.27288 -79.99748 1.96905 0.04926
37.28556 100.00009 1.95318 0.05316
37.28566 90.00129 2.02955 0.05644
37.28556 80.00248 2.05790 0.05069
